Cycle,Area(mm^2),PeakDynamic(W),SubthresholdLeakage(W),GateLeakage(W),RunTimeDynamic(W)
3000000,0.0324,0.013523,0.002678,0.000431,0.468820
3001000,0.0324,0.013523,0.002678,0.000431,0.502668
3002000,0.0324,0.013523,0.002678,0.000431,0.578591
3003000,0.0324,0.013523,0.002678,0.000431,0.598454
3004000,0.0324,0.013523,0.002678,0.000431,0.528289
3005000,0.0324,0.013523,0.002678,0.000431,0.639236
3006000,0.0324,0.013523,0.002678,0.000431,0.495381
3007000,0.0324,0.013523,0.002678,0.000431,0.432269
3008000,0.0324,0.013523,0.002678,0.000431,0.440261
3009000,0.0324,0.013523,0.002678,0.000431,0.542980
3010000,0.0324,0.013523,0.002678,0.000431,0.585290
3011000,0.0324,0.013523,0.002678,0.000431,0.523235
3012000,0.0324,0.013523,0.002678,0.000431,0.532638
3013000,0.0324,0.013523,0.002678,0.000431,0.617140
3014000,0.0324,0.013523,0.002678,0.000431,0.567544
3015000,0.0324,0.013523,0.002678,0.000431,0.557319
3016000,0.0324,0.013523,0.002678,0.000431,0.531933
3017000,0.0324,0.013523,0.002678,0.000431,0.429918
3018000,0.0324,0.013523,0.002678,0.000431,0.417460
3019000,0.0324,0.013523,0.002678,0.000431,0.473051
3020000,0.0324,0.013523,0.002678,0.000431,0.476224
3021000,0.0324,0.013523,0.002678,0.000431,0.553205
3022000,0.0324,0.013523,0.002678,0.000431,0.619726
3023000,0.0324,0.013523,0.002678,0.000431,0.568836
3024000,0.0324,0.013523,0.002678,0.000431,0.491268
3025000,0.0324,0.013523,0.002678,0.000431,0.461768
3026000,0.0324,0.013523,0.002678,0.000431,0.537104
3027000,0.0324,0.013523,0.002678,0.000431,0.485039
3028000,0.0324,0.013523,0.002678,0.000431,0.418283
3029000,0.0324,0.013523,0.002678,0.000431,0.521237
3030000,0.0324,0.013523,0.002678,0.000431,0.444021
3031000,0.0324,0.013523,0.002678,0.000431,0.454952
3032000,0.0324,0.013523,0.002678,0.000431,0.460358
3033000,0.0324,0.013523,0.002678,0.000431,0.373857
3034000,0.0324,0.013523,0.002678,0.000431,0.349411
3035000,0.0324,0.013523,0.002678,0.000431,0.320147
3036000,0.0324,0.013523,0.002678,0.000431,0.288649
3037000,0.0324,0.013523,0.002678,0.000431,0.312742
3038000,0.0324,0.013523,0.002678,0.000431,0.441906
3039000,0.0324,0.013523,0.002678,0.000431,0.355053
3040000,0.0324,0.013523,0.002678,0.000431,0.292293
3041000,0.0324,0.013523,0.002678,0.000431,0.348001
3042000,0.0324,0.013523,0.002678,0.000431,0.502551
3043000,0.0324,0.013523,0.002678,0.000431,0.514303
3044000,0.0324,0.013523,0.002678,0.000431,0.452719
3045000,0.0324,0.013523,0.002678,0.000431,0.574125
3046000,0.0324,0.013523,0.002678,0.000431,0.739957
3047000,0.0324,0.013523,0.002678,0.000431,0.612439
3048000,0.0324,0.013523,0.002678,0.000431,0.664739
3049000,0.0324,0.013523,0.002678,0.000431,0.680841
3050000,0.0324,0.013523,0.002678,0.000431,0.657688
3051000,0.0324,0.013523,0.002678,0.000431,0.614672
3052000,0.0324,0.013523,0.002678,0.000431,0.658393
3053000,0.0324,0.013523,0.002678,0.000431,0.598924
3054000,0.0324,0.013523,0.002678,0.000431,0.620549
3055000,0.0324,0.013523,0.002678,0.000431,0.461651
3056000,0.0324,0.013523,0.002678,0.000431,0.466117
3057000,0.0324,0.013523,0.002678,0.000431,0.462708
3058000,0.0324,0.013523,0.002678,0.000431,0.460240
3059000,0.0324,0.013523,0.002678,0.000431,0.447900
3060000,0.0324,0.013523,0.002678,0.000431,0.492443
3061000,0.0324,0.013523,0.002678,0.000431,0.465177
3062000,0.0324,0.013523,0.002678,0.000431,0.400771
3063000,0.0324,0.013523,0.002678,0.000431,0.462944
3064000,0.0324,0.013523,0.002678,0.000431,0.416285
3065000,0.0324,0.013523,0.002678,0.000431,0.416050
3066000,0.0324,0.013523,0.002678,0.000431,0.352820
3067000,0.0324,0.013523,0.002678,0.000431,0.450956
3068000,0.0324,0.013523,0.002678,0.000431,0.521237
3069000,0.0324,0.013523,0.002678,0.000431,0.404179
3070000,0.0324,0.013523,0.002678,0.000431,0.443081
3071000,0.0324,0.013523,0.002678,0.000431,0.454717
3072000,0.0324,0.013523,0.002678,0.000431,0.506782
3073000,0.0324,0.013523,0.002678,0.000431,0.448017
3074000,0.0324,0.013523,0.002678,0.000431,0.371272
3075000,0.0324,0.013523,0.002678,0.000431,0.414287
3076000,0.0324,0.013523,0.002678,0.000431,0.413699
3077000,0.0324,0.013523,0.002678,0.000431,0.351879
3078000,0.0324,0.013523,0.002678,0.000431,0.409468
3079000,0.0324,0.013523,0.002678,0.000431,0.397833
3080000,0.0324,0.013523,0.002678,0.000431,0.356463
3081000,0.0324,0.013523,0.002678,0.000431,0.424042
3082000,0.0324,0.013523,0.002678,0.000431,0.407000
3083000,0.0324,0.013523,0.002678,0.000431,0.399243
3084000,0.0324,0.013523,0.002678,0.000431,0.355405
3085000,0.0324,0.013523,0.002678,0.000431,0.436030
3086000,0.0324,0.013523,0.002678,0.000431,0.440731
3087000,0.0324,0.013523,0.002678,0.000431,0.315328
3088000,0.0324,0.013523,0.002678,0.000431,0.384670
3089000,0.0324,0.013523,0.002678,0.000431,0.522648
3090000,0.0324,0.013523,0.002678,0.000431,0.466822
3091000,0.0324,0.013523,0.002678,0.000431,0.519004
3092000,0.0324,0.013523,0.002678,0.000431,0.470935
3093000,0.0324,0.013523,0.002678,0.000431,0.404179
3094000,0.0324,0.013523,0.002678,0.000431,0.448840
3095000,0.0324,0.013523,0.002678,0.000431,0.410173
3096000,0.0324,0.013523,0.002678,0.000431,0.509837
3097000,0.0324,0.013523,0.002678,0.000431,0.657688
3098000,0.0324,0.013523,0.002678,0.000431,0.536399
3099000,0.0324,0.013523,0.002678,0.000431,0.537339
3100000,0.0324,0.013523,0.002678,0.000431,0.623017
3101000,0.0324,0.013523,0.002678,0.000431,0.528172
3102000,0.0324,0.013523,0.002678,0.000431,0.502668
3103000,0.0324,0.013523,0.002678,0.000431,0.499847
3104000,0.0324,0.013523,0.002678,0.000431,0.465647
3105000,0.0324,0.013523,0.002678,0.000431,0.537926
3106000,0.0324,0.013523,0.002678,0.000431,0.585760
3107000,0.0324,0.013523,0.002678,0.000431,0.542275
3108000,0.0324,0.013523,0.002678,0.000431,0.481748
3109000,0.0324,0.013523,0.002678,0.000431,0.535929
3110000,0.0324,0.013523,0.002678,0.000431,0.569189
3111000,0.0324,0.013523,0.002678,0.000431,0.564605
3112000,0.0324,0.013523,0.002678,0.000431,0.538279
3113000,0.0324,0.013523,0.002678,0.000431,0.611734
3114000,0.0324,0.013523,0.002678,0.000431,0.591872
3115000,0.0324,0.013523,0.002678,0.000431,0.511130
3116000,0.0324,0.013523,0.002678,0.000431,0.513011
3117000,0.0324,0.013523,0.002678,0.000431,0.614907
3118000,0.0324,0.013523,0.002678,0.000431,0.584820
3119000,0.0324,0.013523,0.002678,0.000431,0.546741
3120000,0.0324,0.013523,0.002678,0.000431,0.552618
3121000,0.0324,0.013523,0.002678,0.000431,0.615965
3122000,0.0324,0.013523,0.002678,0.000431,0.594693
3123000,0.0324,0.013523,0.002678,0.000431,0.471170
3124000,0.0324,0.013523,0.002678,0.000431,0.456362
3125000,0.0324,0.013523,0.002678,0.000431,0.422866
3126000,0.0324,0.013523,0.002678,0.000431,0.398538
3127000,0.0324,0.013523,0.002678,0.000431,0.415110
3128000,0.0324,0.013523,0.002678,0.000431,0.418870
3129000,0.0324,0.013523,0.002678,0.000431,0.594575
3130000,0.0324,0.013523,0.002678,0.000431,0.479985
3131000,0.0324,0.013523,0.002678,0.000431,0.472228
3132000,0.0324,0.013523,0.002678,0.000431,0.463649
3133000,0.0324,0.013523,0.002678,0.000431,0.544626
3134000,0.0324,0.013523,0.002678,0.000431,0.590697
3135000,0.0324,0.013523,0.002678,0.000431,0.649343
3136000,0.0324,0.013523,0.002678,0.000431,0.666150
3137000,0.0324,0.013523,0.002678,0.000431,0.582470
3138000,0.0324,0.013523,0.002678,0.000431,0.581765
3139000,0.0324,0.013523,0.002678,0.000431,0.528172
3140000,0.0324,0.013523,0.002678,0.000431,0.532168
3141000,0.0324,0.013523,0.002678,0.000431,0.440143
3142000,0.0324,0.013523,0.002678,0.000431,0.399361
3143000,0.0324,0.013523,0.002678,0.000431,0.373152
3144000,0.0324,0.013523,0.002678,0.000431,0.339069
3145000,0.0324,0.013523,0.002678,0.000431,0.304398
3146000,0.0324,0.013523,0.002678,0.000431,0.277367
3147000,0.0324,0.013523,0.002678,0.000431,0.270785
3148000,0.0324,0.013523,0.002678,0.000431,0.322967
3149000,0.0324,0.013523,0.002678,0.000431,0.363397
3150000,0.0324,0.013523,0.002678,0.000431,0.417460
3151000,0.0324,0.013523,0.002678,0.000431,0.568131
3152000,0.0324,0.013523,0.002678,0.000431,0.414169
3153000,0.0324,0.013523,0.002678,0.000431,0.363985
3154000,0.0324,0.013523,0.002678,0.000431,0.361634
3155000,0.0324,0.013523,0.002678,0.000431,0.323908
3156000,0.0324,0.013523,0.002678,0.000431,0.311097
3157000,0.0324,0.013523,0.002678,0.000431,0.431799
3158000,0.0324,0.013523,0.002678,0.000431,0.578709
3159000,0.0324,0.013523,0.002678,0.000431,0.447195
3160000,0.0324,0.013523,0.002678,0.000431,0.428038
3161000,0.0324,0.013523,0.002678,0.000431,0.433444
3162000,0.0324,0.013523,0.002678,0.000431,0.450133
3163000,0.0324,0.013523,0.002678,0.000431,0.405942
3164000,0.0324,0.013523,0.002678,0.000431,0.538044
3165000,0.0324,0.013523,0.002678,0.000431,0.670851
3166000,0.0324,0.013523,0.002678,0.000431,0.545213
3167000,0.0324,0.013523,0.002678,0.000431,0.591049
3168000,0.0324,0.013523,0.002678,0.000431,0.577533
3169000,0.0324,0.013523,0.002678,0.000431,0.501023
3170000,0.0324,0.013523,0.002678,0.000431,0.577886
3171000,0.0324,0.013523,0.002678,0.000431,0.627130
3172000,0.0324,0.013523,0.002678,0.000431,0.584350
3173000,0.0324,0.013523,0.002678,0.000431,0.584938
3174000,0.0324,0.013523,0.002678,0.000431,0.611499
3175000,0.0324,0.013523,0.002678,0.000431,0.745599
3176000,0.0324,0.013523,0.002678,0.000431,0.723974
3177000,0.0324,0.013523,0.002678,0.000431,0.549797
3178000,0.0324,0.013523,0.002678,0.000431,0.535693
3179000,0.0324,0.013523,0.002678,0.000431,0.498437
3180000,0.0324,0.013523,0.002678,0.000431,0.493383
3181000,0.0324,0.013523,0.002678,0.000431,0.568719
3182000,0.0324,0.013523,0.002678,0.000431,0.620549
3183000,0.0324,0.013523,0.002678,0.000431,0.575418
3184000,0.0324,0.013523,0.002678,0.000431,0.625955
3185000,0.0324,0.013523,0.002678,0.000431,0.513598
3186000,0.0324,0.013523,0.002678,0.000431,0.487389
3187000,0.0324,0.013523,0.002678,0.000431,0.518064
3188000,0.0324,0.013523,0.002678,0.000431,0.426040
3189000,0.0324,0.013523,0.002678,0.000431,0.420516
3190000,0.0324,0.013523,0.002678,0.000431,0.497614
3191000,0.0324,0.013523,0.002678,0.000431,0.576476
3192000,0.0324,0.013523,0.002678,0.000431,0.583645
3193000,0.0324,0.013523,0.002678,0.000431,0.521590
3194000,0.0324,0.013523,0.002678,0.000431,0.577769
3195000,0.0324,0.013523,0.002678,0.000431,0.624310
3196000,0.0324,0.013523,0.002678,0.000431,0.645935
3197000,0.0324,0.013523,0.002678,0.000431,0.506546
3198000,0.0324,0.013523,0.002678,0.000431,0.500317
3199000,0.0324,0.013523,0.002678,0.000431,0.526409
3200000,0.0324,0.013523,0.002678,0.000431,0.600922
3201000,0.0324,0.013523,0.002678,0.000431,0.538749
3202000,0.0324,0.013523,0.002678,0.000431,0.438380
3203000,0.0324,0.013523,0.002678,0.000431,0.425805
3204000,0.0324,0.013523,0.002678,0.000431,0.438850
3205000,0.0324,0.013523,0.002678,0.000431,0.490915
3206000,0.0324,0.013523,0.002678,0.000431,0.520062
3207000,0.0324,0.013523,0.002678,0.000431,0.410761
3208000,0.0324,0.013523,0.002678,0.000431,0.434032
3209000,0.0324,0.013523,0.002678,0.000431,0.569424
3210000,0.0324,0.013523,0.002678,0.000431,0.682251
3211000,0.0324,0.013523,0.002678,0.000431,0.592460
3212000,0.0324,0.013523,0.002678,0.000431,0.624427
3213000,0.0324,0.013523,0.002678,0.000431,0.516301
3214000,0.0324,0.013523,0.002678,0.000431,0.537691
3215000,0.0324,0.013523,0.002678,0.000431,0.660391
3216000,0.0324,0.013523,0.002678,0.000431,0.788614
3217000,0.0324,0.013523,0.002678,0.000431,0.641234
3218000,0.0324,0.013523,0.002678,0.000431,0.548151
3219000,0.0324,0.013523,0.002678,0.000431,0.688363
3220000,0.0324,0.013523,0.002678,0.000431,0.808006
3221000,0.0324,0.013523,0.002678,0.000431,0.761700
3222000,0.0324,0.013523,0.002678,0.000431,0.752063
3223000,0.0324,0.013523,0.002678,0.000431,0.696942
3224000,0.0324,0.013523,0.002678,0.000431,0.691183
3225000,0.0324,0.013523,0.002678,0.000431,0.610676
3226000,0.0324,0.013523,0.002678,0.000431,0.585996
3227000,0.0324,0.013523,0.002678,0.000431,0.524293
3228000,0.0324,0.013523,0.002678,0.000431,0.510307
3229000,0.0324,0.013523,0.002678,0.000431,0.472228
3230000,0.0324,0.013523,0.002678,0.000431,0.471993
3231000,0.0324,0.013523,0.002678,0.000431,0.575536
3232000,0.0324,0.013523,0.002678,0.000431,0.431681
3233000,0.0324,0.013523,0.002678,0.000431,0.412759
3234000,0.0324,0.013523,0.002678,0.000431,0.467292
3235000,0.0324,0.013523,0.002678,0.000431,0.460946
3236000,0.0324,0.013523,0.002678,0.000431,0.440378
3237000,0.0324,0.013523,0.002678,0.000431,0.409938
3238000,0.0324,0.013523,0.002678,0.000431,0.370096
3239000,0.0324,0.013523,0.002678,0.000431,0.403239
3240000,0.0324,0.013523,0.002678,0.000431,0.514656
3241000,0.0324,0.013523,0.002678,0.000431,0.498084
3242000,0.0324,0.013523,0.002678,0.000431,0.447900
3243000,0.0324,0.013523,0.002678,0.000431,0.423219
3244000,0.0324,0.013523,0.002678,0.000431,0.494911
3245000,0.0324,0.013523,0.002678,0.000431,0.478927
3246000,0.0324,0.013523,0.002678,0.000431,0.405002
3247000,0.0324,0.013523,0.002678,0.000431,0.392779
3248000,0.0324,0.013523,0.002678,0.000431,0.432386
3249000,0.0324,0.013523,0.002678,0.000431,0.431211
3250000,0.0324,0.013523,0.002678,0.000431,0.345768
3251000,0.0324,0.013523,0.002678,0.000431,0.366335
3252000,0.0324,0.013523,0.002678,0.000431,0.400419
3253000,0.0324,0.013523,0.002678,0.000431,0.430976
3254000,0.0324,0.013523,0.002678,0.000431,0.381849
3255000,0.0324,0.013523,0.002678,0.000431,0.444374
3256000,0.0324,0.013523,0.002678,0.000431,0.455774
3257000,0.0324,0.013523,0.002678,0.000431,0.599864
3258000,0.0324,0.013523,0.002678,0.000431,0.734786
3259000,0.0324,0.013523,0.002678,0.000431,0.590109
3260000,0.0324,0.013523,0.002678,0.000431,0.592812
3261000,0.0324,0.013523,0.002678,0.000431,0.547564
3262000,0.0324,0.013523,0.002678,0.000431,0.544155
3263000,0.0324,0.013523,0.002678,0.000431,0.550855
3264000,0.0324,0.013523,0.002678,0.000431,0.560844
3265000,0.0324,0.013523,0.002678,0.000431,0.577533
3266000,0.0324,0.013523,0.002678,0.000431,0.496909
3267000,0.0324,0.013523,0.002678,0.000431,0.524411
3268000,0.0324,0.013523,0.002678,0.000431,0.468115
3269000,0.0324,0.013523,0.002678,0.000431,0.468702
3270000,0.0324,0.013523,0.002678,0.000431,0.592812
3271000,0.0324,0.013523,0.002678,0.000431,0.669441
3272000,0.0324,0.013523,0.002678,0.000431,0.582000
3273000,0.0324,0.013523,0.002678,0.000431,0.529112
3274000,0.0324,0.013523,0.002678,0.000431,0.588934
3275000,0.0324,0.013523,0.002678,0.000431,0.498319
3276000,0.0324,0.013523,0.002678,0.000431,0.490680
3277000,0.0324,0.013523,0.002678,0.000431,0.493736
3278000,0.0324,0.013523,0.002678,0.000431,0.430506
3279000,0.0324,0.013523,0.002678,0.000431,0.436970
3280000,0.0324,0.013523,0.002678,0.000431,0.518534
3281000,0.0324,0.013523,0.002678,0.000431,0.478222
3282000,0.0324,0.013523,0.002678,0.000431,0.424042
3283000,0.0324,0.013523,0.002678,0.000431,0.474579
3284000,0.0324,0.013523,0.002678,0.000431,0.414052
3285000,0.0324,0.013523,0.002678,0.000431,0.461416
3286000,0.0324,0.013523,0.002678,0.000431,0.565076
3287000,0.0324,0.013523,0.002678,0.000431,0.424042
3288000,0.0324,0.013523,0.002678,0.000431,0.474696
3289000,0.0324,0.013523,0.002678,0.000431,0.637590
3290000,0.0324,0.013523,0.002678,0.000431,0.559317
3291000,0.0324,0.013523,0.002678,0.000431,0.485391
3292000,0.0324,0.013523,0.002678,0.000431,0.479515
3293000,0.0324,0.013523,0.002678,0.000431,0.539454
3294000,0.0324,0.013523,0.002678,0.000431,0.613380
3295000,0.0324,0.013523,0.002678,0.000431,0.767812
3296000,0.0324,0.013523,0.002678,0.000431,0.718097
3297000,0.0324,0.013523,0.002678,0.000431,0.605388
3298000,0.0324,0.013523,0.002678,0.000431,0.587171
3299000,0.0324,0.013523,0.002678,0.000431,0.525469
3300000,0.0324,0.013523,0.002678,0.000431,0.479397
3301000,0.0324,0.013523,0.002678,0.000431,0.442023
3302000,0.0324,0.013523,0.002678,0.000431,0.400654
3303000,0.0324,0.013523,0.002678,0.000431,0.380674
3304000,0.0324,0.013523,0.002678,0.000431,0.365983
3305000,0.0324,0.013523,0.002678,0.000431,0.344240
3306000,0.0324,0.013523,0.002678,0.000431,0.330607
3307000,0.0324,0.013523,0.002678,0.000431,0.314270
3308000,0.0324,0.013523,0.002678,0.000431,0.302165
3309000,0.0324,0.013523,0.002678,0.000431,0.279952
3310000,0.0324,0.013523,0.002678,0.000431,0.276544
3311000,0.0324,0.013523,0.002678,0.000431,0.262440
3312000,0.0324,0.013523,0.002678,0.000431,0.248807
3313000,0.0324,0.013523,0.002678,0.000431,0.252686
3314000,0.0324,0.013523,0.002678,0.000431,0.231648
3315000,0.0324,0.013523,0.002678,0.000431,0.233999
3316000,0.0324,0.013523,0.002678,0.000431,0.226359
3317000,0.0324,0.013523,0.002678,0.000431,0.216369
3318000,0.0324,0.013523,0.002678,0.000431,0.205204
3319000,0.0324,0.013523,0.002678,0.000431,0.205322
3320000,0.0324,0.013523,0.002678,0.000431,0.197330
3321000,0.0324,0.013523,0.002678,0.000431,0.186987
3322000,0.0324,0.013523,0.002678,0.000431,0.188985
3323000,0.0324,0.013523,0.002678,0.000431,0.176057
3324000,0.0324,0.013523,0.002678,0.000431,0.176175
3325000,0.0324,0.013523,0.002678,0.000431,0.173707
3326000,0.0324,0.013523,0.002678,0.000431,0.174177
3327000,0.0324,0.013523,0.002678,0.000431,0.162777
3328000,0.0324,0.013523,0.002678,0.000431,0.158310
3329000,0.0324,0.013523,0.002678,0.000431,0.160191
3330000,0.0324,0.013523,0.002678,0.000431,0.157840
3331000,0.0324,0.013523,0.002678,0.000431,0.153257
3332000,0.0324,0.013523,0.002678,0.000431,0.150083
3333000,0.0324,0.013523,0.002678,0.000431,0.150789
3334000,0.0324,0.013523,0.002678,0.000431,0.139271
3335000,0.0324,0.013523,0.002678,0.000431,0.144207
3336000,0.0324,0.013523,0.002678,0.000431,0.135510
3337000,0.0324,0.013523,0.002678,0.000431,0.138566
3338000,0.0324,0.013523,0.002678,0.000431,0.131514
3339000,0.0324,0.013523,0.002678,0.000431,0.132102
3340000,0.0324,0.013523,0.002678,0.000431,0.128106
3341000,0.0324,0.013523,0.002678,0.000431,0.126343
3342000,0.0324,0.013523,0.002678,0.000431,0.124110
3343000,0.0324,0.013523,0.002678,0.000431,0.120936
3344000,0.0324,0.013523,0.002678,0.000431,0.120349
3345000,0.0324,0.013523,0.002678,0.000431,0.114237
3346000,0.0324,0.013523,0.002678,0.000431,0.120701
3347000,0.0324,0.013523,0.002678,0.000431,0.114708
3348000,0.0324,0.013523,0.002678,0.000431,0.114002
3349000,0.0324,0.013523,0.002678,0.000431,0.112122
3350000,0.0324,0.013523,0.002678,0.000431,0.110006
3351000,0.0324,0.013523,0.002678,0.000431,0.109889
3352000,0.0324,0.013523,0.002678,0.000431,0.110947
3353000,0.0324,0.013523,0.002678,0.000431,0.108714
3354000,0.0324,0.013523,0.002678,0.000431,0.101897
3355000,0.0324,0.013523,0.002678,0.000431,0.103307
3356000,0.0324,0.013523,0.002678,0.000431,0.100252
3357000,0.0324,0.013523,0.002678,0.000431,0.095785
3358000,0.0324,0.013523,0.002678,0.000431,0.100252
3359000,0.0324,0.013523,0.002678,0.000431,0.093905
3360000,0.0324,0.013523,0.002678,0.000431,0.093317
3361000,0.0324,0.013523,0.002678,0.000431,0.089204
3362000,0.0324,0.013523,0.002678,0.000431,0.091202
3363000,0.0324,0.013523,0.002678,0.000431,0.089086
3364000,0.0324,0.013523,0.002678,0.000431,0.087441
3365000,0.0324,0.013523,0.002678,0.000431,0.087676
3366000,0.0324,0.013523,0.002678,0.000431,0.089674
3367000,0.0324,0.013523,0.002678,0.000431,0.086618
3368000,0.0324,0.013523,0.002678,0.000431,0.083798
3369000,0.0324,0.013523,0.002678,0.000431,0.087794
3370000,0.0324,0.013523,0.002678,0.000431,0.083798
3371000,0.0324,0.013523,0.002678,0.000431,0.084150
3372000,0.0324,0.013523,0.002678,0.000431,0.082152
3373000,0.0324,0.013523,0.002678,0.000431,0.082622
3374000,0.0324,0.013523,0.002678,0.000431,0.079449
3375000,0.0324,0.013523,0.002678,0.000431,0.081330
3376000,0.0324,0.013523,0.002678,0.000431,0.077334
3377000,0.0324,0.013523,0.002678,0.000431,0.078509
3378000,0.0324,0.013523,0.002678,0.000431,0.076276
3379000,0.0324,0.013523,0.002678,0.000431,0.075806
3380000,0.0324,0.013523,0.002678,0.000431,0.072515
3381000,0.0324,0.013523,0.002678,0.000431,0.073103
3382000,0.0324,0.013523,0.002678,0.000431,0.074043
3383000,0.0324,0.013523,0.002678,0.000431,0.072632
3384000,0.0324,0.013523,0.002678,0.000431,0.067696
3385000,0.0324,0.013523,0.002678,0.000431,0.070869
3386000,0.0324,0.013523,0.002678,0.000431,0.072280
3387000,0.0324,0.013523,0.002678,0.000431,0.067461
3388000,0.0324,0.013523,0.002678,0.000431,0.070164
3389000,0.0324,0.013523,0.002678,0.000431,0.068401
3390000,0.0324,0.013523,0.002678,0.000431,0.069342
3391000,0.0324,0.013523,0.002678,0.000431,0.065228
3392000,0.0324,0.013523,0.002678,0.000431,0.067344
3393000,0.0324,0.013523,0.002678,0.000431,0.068284
3394000,0.0324,0.013523,0.002678,0.000431,0.063583
3395000,0.0324,0.013523,0.002678,0.000431,0.065111
3396000,0.0324,0.013523,0.002678,0.000431,0.064405
3397000,0.0324,0.013523,0.002678,0.000431,0.066051
3398000,0.0324,0.013523,0.002678,0.000431,0.062878
3399000,0.0324,0.013523,0.002678,0.000431,0.060527
3400000,0.0324,0.013523,0.002678,0.000431,0.063230
3401000,0.0324,0.013523,0.002678,0.000431,0.062055
3402000,0.0324,0.013523,0.002678,0.000431,0.058999
3403000,0.0324,0.013523,0.002678,0.000431,0.061350
3404000,0.0324,0.013523,0.002678,0.000431,0.059117
3405000,0.0324,0.013523,0.002678,0.000431,0.057236
3406000,0.0324,0.013523,0.002678,0.000431,0.057706
3407000,0.0324,0.013523,0.002678,0.000431,0.058882
3408000,0.0324,0.013523,0.002678,0.000431,0.056649
3409000,0.0324,0.013523,0.002678,0.000431,0.057119
3410000,0.0324,0.013523,0.002678,0.000431,0.058882
3411000,0.0324,0.013523,0.002678,0.000431,0.054298
3412000,0.0324,0.013523,0.002678,0.000431,0.058294
3413000,0.0324,0.013523,0.002678,0.000431,0.058059
3414000,0.0324,0.013523,0.002678,0.000431,0.058176
3415000,0.0324,0.013523,0.002678,0.000431,0.057119
3416000,0.0324,0.013523,0.002678,0.000431,0.055708
3417000,0.0324,0.013523,0.002678,0.000431,0.055003
3418000,0.0324,0.013523,0.002678,0.000431,0.055238
3419000,0.0324,0.013523,0.002678,0.000431,0.050772
3420000,0.0324,0.013523,0.002678,0.000431,0.055121
3421000,0.0324,0.013523,0.002678,0.000431,0.053475
3422000,0.0324,0.013523,0.002678,0.000431,0.049362
3423000,0.0324,0.013523,0.002678,0.000431,0.050185
3424000,0.0324,0.013523,0.002678,0.000431,0.050772
3425000,0.0324,0.013523,0.002678,0.000431,0.049244
3426000,0.0324,0.013523,0.002678,0.000431,0.047599
3427000,0.0324,0.013523,0.002678,0.000431,0.049009
3428000,0.0324,0.013523,0.002678,0.000431,0.047716
3429000,0.0324,0.013523,0.002678,0.000431,0.045954
3430000,0.0324,0.013523,0.002678,0.000431,0.047951
3431000,0.0324,0.013523,0.002678,0.000431,0.047716
3432000,0.0324,0.013523,0.002678,0.000431,0.046659
3433000,0.0324,0.013523,0.002678,0.000431,0.047129
3434000,0.0324,0.013523,0.002678,0.000431,0.048774
3435000,0.0324,0.013523,0.002678,0.000431,0.046659
3436000,0.0324,0.013523,0.002678,0.000431,0.044661
3437000,0.0324,0.013523,0.002678,0.000431,0.045954
3438000,0.0324,0.013523,0.002678,0.000431,0.044896
3439000,0.0324,0.013523,0.002678,0.000431,0.044073
3440000,0.0324,0.013523,0.002678,0.000431,0.045483
3441000,0.0324,0.013523,0.002678,0.000431,0.045601
3442000,0.0324,0.013523,0.002678,0.000431,0.044191
3443000,0.0324,0.013523,0.002678,0.000431,0.046894
3444000,0.0324,0.013523,0.002678,0.000431,0.041958
3445000,0.0324,0.013523,0.002678,0.000431,0.047011
3446000,0.0324,0.013523,0.002678,0.000431,0.043838
3447000,0.0324,0.013523,0.002678,0.000431,0.043485
3448000,0.0324,0.013523,0.002678,0.000431,0.043603
3449000,0.0324,0.013523,0.002678,0.000431,0.044073
3450000,0.0324,0.013523,0.002678,0.000431,0.043603
3451000,0.0324,0.013523,0.002678,0.000431,0.044661
3452000,0.0324,0.013523,0.002678,0.000431,0.043603
3453000,0.0324,0.013523,0.002678,0.000431,0.045601
3454000,0.0324,0.013523,0.002678,0.000431,0.044426
3455000,0.0324,0.013523,0.002678,0.000431,0.044661
3456000,0.0324,0.013523,0.002678,0.000431,0.043838
3457000,0.0324,0.013523,0.002678,0.000431,0.041958
3458000,0.0324,0.013523,0.002678,0.000431,0.042193
3459000,0.0324,0.013523,0.002678,0.000431,0.041958
3460000,0.0324,0.013523,0.002678,0.000431,0.040782
3461000,0.0324,0.013523,0.002678,0.000431,0.041135
3462000,0.0324,0.013523,0.002678,0.000431,0.041605
3463000,0.0324,0.013523,0.002678,0.000431,0.039842
3464000,0.0324,0.013523,0.002678,0.000431,0.039607
3465000,0.0324,0.013523,0.002678,0.000431,0.042428
3466000,0.0324,0.013523,0.002678,0.000431,0.039725
3467000,0.0324,0.013523,0.002678,0.000431,0.040665
3468000,0.0324,0.013523,0.002678,0.000431,0.040312
3469000,0.0324,0.013523,0.002678,0.000431,0.042310
3470000,0.0324,0.013523,0.002678,0.000431,0.038784
3471000,0.0324,0.013523,0.002678,0.000431,0.040665
3472000,0.0324,0.013523,0.002678,0.000431,0.038432
3473000,0.0324,0.013523,0.002678,0.000431,0.039842
3474000,0.0324,0.013523,0.002678,0.000431,0.038902
3475000,0.0324,0.013523,0.002678,0.000431,0.039607
3476000,0.0324,0.013523,0.002678,0.000431,0.040195
3477000,0.0324,0.013523,0.002678,0.000431,0.038432
3478000,0.0324,0.013523,0.002678,0.000431,0.037021
3479000,0.0324,0.013523,0.002678,0.000431,0.039019
3480000,0.0324,0.013523,0.002678,0.000431,0.037962
3481000,0.0324,0.013523,0.002678,0.000431,0.037374
3482000,0.0324,0.013523,0.002678,0.000431,0.037139
3483000,0.0324,0.013523,0.002678,0.000431,0.039019
3484000,0.0324,0.013523,0.002678,0.000431,0.038079
3485000,0.0324,0.013523,0.002678,0.000431,0.038079
3486000,0.0324,0.013523,0.002678,0.000431,0.038079
3487000,0.0324,0.013523,0.002678,0.000431,0.038079
3488000,0.0324,0.013523,0.002678,0.000431,0.037727
3489000,0.0324,0.013523,0.002678,0.000431,0.038314
3490000,0.0324,0.013523,0.002678,0.000431,0.039372
3491000,0.0324,0.013523,0.002678,0.000431,0.036669
3492000,0.0324,0.013523,0.002678,0.000431,0.038197
3493000,0.0324,0.013523,0.002678,0.000431,0.039489
3494000,0.0324,0.013523,0.002678,0.000431,0.035964
3495000,0.0324,0.013523,0.002678,0.000431,0.037374
3496000,0.0324,0.013523,0.002678,0.000431,0.036669
3497000,0.0324,0.013523,0.002678,0.000431,0.036434
3498000,0.0324,0.013523,0.002678,0.000431,0.036199
3499000,0.0324,0.013523,0.002678,0.000431,0.038314
3500000,0.0324,0.013523,0.002678,0.000431,0.036551
3501000,0.0324,0.013523,0.002678,0.000431,0.036316
3502000,0.0324,0.013523,0.002678,0.000431,0.037609
3503000,0.0324,0.013523,0.002678,0.000431,0.037021
3504000,0.0324,0.013523,0.002678,0.000431,0.033966
3505000,0.0324,0.013523,0.002678,0.000431,0.036316
3506000,0.0324,0.013523,0.002678,0.000431,0.036434
3507000,0.0324,0.013523,0.002678,0.000431,0.037374
3508000,0.0324,0.013523,0.002678,0.000431,0.035258
3509000,0.0324,0.013523,0.002678,0.000431,0.035611
3510000,0.0324,0.013523,0.002678,0.000431,0.034906
3511000,0.0324,0.013523,0.002678,0.000431,0.035964
3512000,0.0324,0.013523,0.002678,0.000431,0.035729
3513000,0.0324,0.013523,0.002678,0.000431,0.033260
3514000,0.0324,0.013523,0.002678,0.000431,0.035376
3515000,0.0324,0.013523,0.002678,0.000431,0.034083
3516000,0.0324,0.013523,0.002678,0.000431,0.034436
3517000,0.0324,0.013523,0.002678,0.000431,0.034553
3518000,0.0324,0.013523,0.002678,0.000431,0.036081
3519000,0.0324,0.013523,0.002678,0.000431,0.035494
3520000,0.0324,0.013523,0.002678,0.000431,0.033143
3521000,0.0324,0.013523,0.002678,0.000431,0.035258
3522000,0.0324,0.013523,0.002678,0.000431,0.035846
3523000,0.0324,0.013523,0.002678,0.000431,0.035964
3524000,0.0324,0.013523,0.002678,0.000431,0.034671
3525000,0.0324,0.013523,0.002678,0.000431,0.033848
3526000,0.0324,0.013523,0.002678,0.000431,0.034083
3527000,0.0324,0.013523,0.002678,0.000431,0.034906
3528000,0.0324,0.013523,0.002678,0.000431,0.035729
3529000,0.0324,0.013523,0.002678,0.000431,0.035258
3530000,0.0324,0.013523,0.002678,0.000431,0.034553
3531000,0.0324,0.013523,0.002678,0.000431,0.034553
3532000,0.0324,0.013523,0.002678,0.000431,0.033260
3533000,0.0324,0.013523,0.002678,0.000431,0.034201
3534000,0.0324,0.013523,0.002678,0.000431,0.034436
3535000,0.0324,0.013523,0.002678,0.000431,0.034436
3536000,0.0324,0.013523,0.002678,0.000431,0.033613
3537000,0.0324,0.013523,0.002678,0.000431,0.034318
3538000,0.0324,0.013523,0.002678,0.000431,0.032673
3539000,0.0324,0.013523,0.002678,0.000431,0.032790
3540000,0.0324,0.013523,0.002678,0.000431,0.033260
3541000,0.0324,0.013523,0.002678,0.000431,0.032085
3542000,0.0324,0.013523,0.002678,0.000431,0.032085
3543000,0.0324,0.013523,0.002678,0.000431,0.032555
3544000,0.0324,0.013523,0.002678,0.000431,0.032673
3545000,0.0324,0.013523,0.002678,0.000431,0.031027
3546000,0.0324,0.013523,0.002678,0.000431,0.031498
3547000,0.0324,0.013523,0.002678,0.000431,0.033496
3548000,0.0324,0.013523,0.002678,0.000431,0.031968
3549000,0.0324,0.013523,0.002678,0.000431,0.031615
3550000,0.0324,0.013523,0.002678,0.000431,0.034201
3551000,0.0324,0.013523,0.002678,0.000431,0.031027
3552000,0.0324,0.013523,0.002678,0.000431,0.031850
3553000,0.0324,0.013523,0.002678,0.000431,0.031027
3554000,0.0324,0.013523,0.002678,0.000431,0.031262
3555000,0.0324,0.013523,0.002678,0.000431,0.032438
3556000,0.0324,0.013523,0.002678,0.000431,0.030675
3557000,0.0324,0.013523,0.002678,0.000431,0.029970
3558000,0.0324,0.013523,0.002678,0.000431,0.030792
3559000,0.0324,0.013523,0.002678,0.000431,0.030792
3560000,0.0324,0.013523,0.002678,0.000431,0.031262
3561000,0.0324,0.013523,0.002678,0.000431,0.029852
3562000,0.0324,0.013523,0.002678,0.000431,0.030557
3563000,0.0324,0.013523,0.002678,0.000431,0.029147
3564000,0.0324,0.013523,0.002678,0.000431,0.029852
3565000,0.0324,0.013523,0.002678,0.000431,0.028912
3566000,0.0324,0.013523,0.002678,0.000431,0.030675
3567000,0.0324,0.013523,0.002678,0.000431,0.029029
3568000,0.0324,0.013523,0.002678,0.000431,0.028324
3569000,0.0324,0.013523,0.002678,0.000431,0.028089
3570000,0.0324,0.013523,0.002678,0.000431,0.027619
3571000,0.0324,0.013523,0.002678,0.000431,0.029617
3572000,0.0324,0.013523,0.002678,0.000431,0.028089
3573000,0.0324,0.013523,0.002678,0.000431,0.027737
3574000,0.0324,0.013523,0.002678,0.000431,0.027737
3575000,0.0324,0.013523,0.002678,0.000431,0.028559
3576000,0.0324,0.013523,0.002678,0.000431,0.026561
3577000,0.0324,0.013523,0.002678,0.000431,0.026679
3578000,0.0324,0.013523,0.002678,0.000431,0.026326
3579000,0.0324,0.013523,0.002678,0.000431,0.027149
3580000,0.0324,0.013523,0.002678,0.000431,0.024681
3581000,0.0324,0.013523,0.002678,0.000431,0.026444
3582000,0.0324,0.013523,0.002678,0.000431,0.025856
3583000,0.0324,0.013523,0.002678,0.000431,0.025856
3584000,0.0324,0.013523,0.002678,0.000431,0.026796
3585000,0.0324,0.013523,0.002678,0.000431,0.025856
3586000,0.0324,0.013523,0.002678,0.000431,0.025504
3587000,0.0324,0.013523,0.002678,0.000431,0.026679
3588000,0.0324,0.013523,0.002678,0.000431,0.025386
3589000,0.0324,0.013523,0.002678,0.000431,0.025034
3590000,0.0324,0.013523,0.002678,0.000431,0.025856
3591000,0.0324,0.013523,0.002678,0.000431,0.026209
3592000,0.0324,0.013523,0.002678,0.000431,0.024916
3593000,0.0324,0.013523,0.002678,0.000431,0.026796
3594000,0.0324,0.013523,0.002678,0.000431,0.025269
3595000,0.0324,0.013523,0.002678,0.000431,0.023976
3596000,0.0324,0.013523,0.002678,0.000431,0.025269
3597000,0.0324,0.013523,0.002678,0.000431,0.025386
3598000,0.0324,0.013523,0.002678,0.000431,0.023271
3599000,0.0324,0.013523,0.002678,0.000431,0.025034
3600000,0.0324,0.013523,0.002678,0.000431,0.026326
3601000,0.0324,0.013523,0.002678,0.000431,0.024681
3602000,0.0324,0.013523,0.002678,0.000431,0.023741
3603000,0.0324,0.013523,0.002678,0.000431,0.025504
3604000,0.0324,0.013523,0.002678,0.000431,0.025739
3605000,0.0324,0.013523,0.002678,0.000431,0.023388
3606000,0.0324,0.013523,0.002678,0.000431,0.025856
3607000,0.0324,0.013523,0.002678,0.000431,0.027031
3608000,0.0324,0.013523,0.002678,0.000431,0.022683
3609000,0.0324,0.013523,0.002678,0.000431,0.024211
3610000,0.0324,0.013523,0.002678,0.000431,0.026209
3611000,0.0324,0.013523,0.002678,0.000431,0.024563
3612000,0.0324,0.013523,0.002678,0.000431,0.023741
3613000,0.0324,0.013523,0.002678,0.000431,0.025621
3614000,0.0324,0.013523,0.002678,0.000431,0.024681
3615000,0.0324,0.013523,0.002678,0.000431,0.024328
3616000,0.0324,0.013523,0.002678,0.000431,0.025504
3617000,0.0324,0.013523,0.002678,0.000431,0.023623
3618000,0.0324,0.013523,0.002678,0.000431,0.023271
3619000,0.0324,0.013523,0.002678,0.000431,0.023976
3620000,0.0324,0.013523,0.002678,0.000431,0.023858
3621000,0.0324,0.013523,0.002678,0.000431,0.024681
3622000,0.0324,0.013523,0.002678,0.000431,0.024446
3623000,0.0324,0.013523,0.002678,0.000431,0.023271
3624000,0.0324,0.013523,0.002678,0.000431,0.024211
3625000,0.0324,0.013523,0.002678,0.000431,0.023388
3626000,0.0324,0.013523,0.002678,0.000431,0.023036
3627000,0.0324,0.013523,0.002678,0.000431,0.026209
3628000,0.0324,0.013523,0.002678,0.000431,0.022330
3629000,0.0324,0.013523,0.002678,0.000431,0.023388
3630000,0.0324,0.013523,0.002678,0.000431,0.025621
3631000,0.0324,0.013523,0.002678,0.000431,0.022448
3632000,0.0324,0.013523,0.002678,0.000431,0.021978
3633000,0.0324,0.013523,0.002678,0.000431,0.022565
3634000,0.0324,0.013523,0.002678,0.000431,0.023741
3635000,0.0324,0.013523,0.002678,0.000431,0.022095
3636000,0.0324,0.013523,0.002678,0.000431,0.022918
3637000,0.0324,0.013523,0.002678,0.000431,0.023153
3638000,0.0324,0.013523,0.002678,0.000431,0.022330
3639000,0.0324,0.013523,0.002678,0.000431,0.022448
3640000,0.0324,0.013523,0.002678,0.000431,0.023153
3641000,0.0324,0.013523,0.002678,0.000431,0.021625
3642000,0.0324,0.013523,0.002678,0.000431,0.022565
3643000,0.0324,0.013523,0.002678,0.000431,0.022330
3644000,0.0324,0.013523,0.002678,0.000431,0.022918
3645000,0.0324,0.013523,0.002678,0.000431,0.020215
3646000,0.0324,0.013523,0.002678,0.000431,0.023153
3647000,0.0324,0.013523,0.002678,0.000431,0.022918
3648000,0.0324,0.013523,0.002678,0.000431,0.019745
3649000,0.0324,0.013523,0.002678,0.000431,0.021038
3650000,0.0324,0.013523,0.002678,0.000431,0.022095
3651000,0.0324,0.013523,0.002678,0.000431,0.020802
3652000,0.0324,0.013523,0.002678,0.000431,0.021273
3653000,0.0324,0.013523,0.002678,0.000431,0.022448
3654000,0.0324,0.013523,0.002678,0.000431,0.022213
3655000,0.0324,0.013523,0.002678,0.000431,0.020332
3656000,0.0324,0.013523,0.002678,0.000431,0.020332
3657000,0.0324,0.013523,0.002678,0.000431,0.020802
3658000,0.0324,0.013523,0.002678,0.000431,0.018099
3659000,0.0324,0.013523,0.002678,0.000431,0.020920
3660000,0.0324,0.013523,0.002678,0.000431,0.019980
3661000,0.0324,0.013523,0.002678,0.000431,0.019980
3662000,0.0324,0.013523,0.002678,0.000431,0.020215
3663000,0.0324,0.013523,0.002678,0.000431,0.019862
3664000,0.0324,0.013523,0.002678,0.000431,0.019627
3665000,0.0324,0.013523,0.002678,0.000431,0.019862
3666000,0.0324,0.013523,0.002678,0.000431,0.020097
3667000,0.0324,0.013523,0.002678,0.000431,0.019392
3668000,0.0324,0.013523,0.002678,0.000431,0.021508
3669000,0.0324,0.013523,0.002678,0.000431,0.019862
3670000,0.0324,0.013523,0.002678,0.000431,0.020215
3671000,0.0324,0.013523,0.002678,0.000431,0.020332
3672000,0.0324,0.013523,0.002678,0.000431,0.019157
3673000,0.0324,0.013523,0.002678,0.000431,0.019980
3674000,0.0324,0.013523,0.002678,0.000431,0.020802
3675000,0.0324,0.013523,0.002678,0.000431,0.019157
3676000,0.0324,0.013523,0.002678,0.000431,0.019862
3677000,0.0324,0.013523,0.002678,0.000431,0.019627
3678000,0.0324,0.013523,0.002678,0.000431,0.020097
3679000,0.0324,0.013523,0.002678,0.000431,0.020097
3680000,0.0324,0.013523,0.002678,0.000431,0.018922
3681000,0.0324,0.013523,0.002678,0.000431,0.020332
3682000,0.0324,0.013523,0.002678,0.000431,0.021038
3683000,0.0324,0.013523,0.002678,0.000431,0.020097
3684000,0.0324,0.013523,0.002678,0.000431,0.018687
3685000,0.0324,0.013523,0.002678,0.000431,0.020920
3686000,0.0324,0.013523,0.002678,0.000431,0.019627
3687000,0.0324,0.013523,0.002678,0.000431,0.019040
3688000,0.0324,0.013523,0.002678,0.000431,0.020097
3689000,0.0324,0.013523,0.002678,0.000431,0.018687
3690000,0.0324,0.013523,0.002678,0.000431,0.019510
3691000,0.0324,0.013523,0.002678,0.000431,0.019157
3692000,0.0324,0.013523,0.002678,0.000431,0.019745
3693000,0.0324,0.013523,0.002678,0.000431,0.019040
3694000,0.0324,0.013523,0.002678,0.000431,0.018452
3695000,0.0324,0.013523,0.002678,0.000431,0.019862
3696000,0.0324,0.013523,0.002678,0.000431,0.018687
3697000,0.0324,0.013523,0.002678,0.000431,0.019627
3698000,0.0324,0.013523,0.002678,0.000431,0.019745
3699000,0.0324,0.013523,0.002678,0.000431,0.018805
3700000,0.0324,0.013523,0.002678,0.000431,0.019510
3701000,0.0324,0.013523,0.002678,0.000431,0.019745
3702000,0.0324,0.013523,0.002678,0.000431,0.019157
3703000,0.0324,0.013523,0.002678,0.000431,0.018805
3704000,0.0324,0.013523,0.002678,0.000431,0.019392
3705000,0.0324,0.013523,0.002678,0.000431,0.019157
3706000,0.0324,0.013523,0.002678,0.000431,0.018217
3707000,0.0324,0.013523,0.002678,0.000431,0.019862
3708000,0.0324,0.013523,0.002678,0.000431,0.020097
3709000,0.0324,0.013523,0.002678,0.000431,0.018687
3710000,0.0324,0.013523,0.002678,0.000431,0.020097
3711000,0.0324,0.013523,0.002678,0.000431,0.019627
3712000,0.0324,0.013523,0.002678,0.000431,0.018805
3713000,0.0324,0.013523,0.002678,0.000431,0.019040
3714000,0.0324,0.013523,0.002678,0.000431,0.019275
3715000,0.0324,0.013523,0.002678,0.000431,0.018805
3716000,0.0324,0.013523,0.002678,0.000431,0.018099
3717000,0.0324,0.013523,0.002678,0.000431,0.018569
3718000,0.0324,0.013523,0.002678,0.000431,0.018687
3719000,0.0324,0.013523,0.002678,0.000431,0.017982
3720000,0.0324,0.013523,0.002678,0.000431,0.019745
3721000,0.0324,0.013523,0.002678,0.000431,0.018217
3722000,0.0324,0.013523,0.002678,0.000431,0.019157
3723000,0.0324,0.013523,0.002678,0.000431,0.018334
3724000,0.0324,0.013523,0.002678,0.000431,0.019275
3725000,0.0324,0.013523,0.002678,0.000431,0.018805
3726000,0.0324,0.013523,0.002678,0.000431,0.018334
3727000,0.0324,0.013523,0.002678,0.000431,0.019040
3728000,0.0324,0.013523,0.002678,0.000431,0.017394
3729000,0.0324,0.013523,0.002678,0.000431,0.017982
3730000,0.0324,0.013523,0.002678,0.000431,0.019275
3731000,0.0324,0.013523,0.002678,0.000431,0.018687
3732000,0.0324,0.013523,0.002678,0.000431,0.017629
3733000,0.0324,0.013523,0.002678,0.000431,0.019157
3734000,0.0324,0.013523,0.002678,0.000431,0.018217
3735000,0.0324,0.013523,0.002678,0.000431,0.016924
3736000,0.0324,0.013523,0.002678,0.000431,0.017982
3737000,0.0324,0.013523,0.002678,0.000431,0.016219
3738000,0.0324,0.013523,0.002678,0.000431,0.016101
3739000,0.0324,0.013523,0.002678,0.000431,0.016219
3740000,0.0324,0.013523,0.002678,0.000431,0.016924
3741000,0.0324,0.013523,0.002678,0.000431,0.015396
3742000,0.0324,0.013523,0.002678,0.000431,0.017042
3743000,0.0324,0.013523,0.002678,0.000431,0.016101
3744000,0.0324,0.013523,0.002678,0.000431,0.016454
3745000,0.0324,0.013523,0.002678,0.000431,0.016219
3746000,0.0324,0.013523,0.002678,0.000431,0.015279
3747000,0.0324,0.013523,0.002678,0.000431,0.015749
3748000,0.0324,0.013523,0.002678,0.000431,0.015866
3749000,0.0324,0.013523,0.002678,0.000431,0.017042
3750000,0.0324,0.013523,0.002678,0.000431,0.016219
3751000,0.0324,0.013523,0.002678,0.000431,0.015866
3752000,0.0324,0.013523,0.002678,0.000431,0.016924
3753000,0.0324,0.013523,0.002678,0.000431,0.015631
3754000,0.0324,0.013523,0.002678,0.000431,0.016219
3755000,0.0324,0.013523,0.002678,0.000431,0.016101
3756000,0.0324,0.013523,0.002678,0.000431,0.016454
3757000,0.0324,0.013523,0.002678,0.000431,0.015279
3758000,0.0324,0.013523,0.002678,0.000431,0.016454
3759000,0.0324,0.013523,0.002678,0.000431,0.016689
3760000,0.0324,0.013523,0.002678,0.000431,0.015279
3761000,0.0324,0.013523,0.002678,0.000431,0.016454
3762000,0.0324,0.013523,0.002678,0.000431,0.015866
3763000,0.0324,0.013523,0.002678,0.000431,0.016571
3764000,0.0324,0.013523,0.002678,0.000431,0.016336
3765000,0.0324,0.013523,0.002678,0.000431,0.015279
3766000,0.0324,0.013523,0.002678,0.000431,0.016689
3767000,0.0324,0.013523,0.002678,0.000431,0.015866
3768000,0.0324,0.013523,0.002678,0.000431,0.015749
3769000,0.0324,0.013523,0.002678,0.000431,0.015161
3770000,0.0324,0.013523,0.002678,0.000431,0.016219
3771000,0.0324,0.013523,0.002678,0.000431,0.016101
3772000,0.0324,0.013523,0.002678,0.000431,0.016454
3773000,0.0324,0.013523,0.002678,0.000431,0.017159
3774000,0.0324,0.013523,0.002678,0.000431,0.015396
3775000,0.0324,0.013523,0.002678,0.000431,0.016454
3776000,0.0324,0.013523,0.002678,0.000431,0.015514
3777000,0.0324,0.013523,0.002678,0.000431,0.015279
3778000,0.0324,0.013523,0.002678,0.000431,0.014809
3779000,0.0324,0.013523,0.002678,0.000431,0.015866
3780000,0.0324,0.013523,0.002678,0.000431,0.015749
3781000,0.0324,0.013523,0.002678,0.000431,0.014809
3782000,0.0324,0.013523,0.002678,0.000431,0.014926
3783000,0.0324,0.013523,0.002678,0.000431,0.016571
3784000,0.0324,0.013523,0.002678,0.000431,0.014691
3785000,0.0324,0.013523,0.002678,0.000431,0.015044
3786000,0.0324,0.013523,0.002678,0.000431,0.015984
3787000,0.0324,0.013523,0.002678,0.000431,0.015161
3788000,0.0324,0.013523,0.002678,0.000431,0.014338
3789000,0.0324,0.013523,0.002678,0.000431,0.015866
3790000,0.0324,0.013523,0.002678,0.000431,0.015514
3791000,0.0324,0.013523,0.002678,0.000431,0.014926
3792000,0.0324,0.013523,0.002678,0.000431,0.015279
3793000,0.0324,0.013523,0.002678,0.000431,0.015866
3794000,0.0324,0.013523,0.002678,0.000431,0.014809
3795000,0.0324,0.013523,0.002678,0.000431,0.015984
3796000,0.0324,0.013523,0.002678,0.000431,0.015866
3797000,0.0324,0.013523,0.002678,0.000431,0.014926
3798000,0.0324,0.013523,0.002678,0.000431,0.015396
3799000,0.0324,0.013523,0.002678,0.000431,0.015396
3800000,0.0324,0.013523,0.002678,0.000431,0.015984
3801000,0.0324,0.013523,0.002678,0.000431,0.014221
3802000,0.0324,0.013523,0.002678,0.000431,0.015514
3803000,0.0324,0.013523,0.002678,0.000431,0.016689
3804000,0.0324,0.013523,0.002678,0.000431,0.015161
3805000,0.0324,0.013523,0.002678,0.000431,0.014691
3806000,0.0324,0.013523,0.002678,0.000431,0.016101
3807000,0.0324,0.013523,0.002678,0.000431,0.014221
3808000,0.0324,0.013523,0.002678,0.000431,0.013868
3809000,0.0324,0.013523,0.002678,0.000431,0.015866
3810000,0.0324,0.013523,0.002678,0.000431,0.014221
3811000,0.0324,0.013523,0.002678,0.000431,0.014926
3812000,0.0324,0.013523,0.002678,0.000431,0.014691
3813000,0.0324,0.013523,0.002678,0.000431,0.015514
3814000,0.0324,0.013523,0.002678,0.000431,0.013751
3815000,0.0324,0.013523,0.002678,0.000431,0.014926
3816000,0.0324,0.013523,0.002678,0.000431,0.015514
3817000,0.0324,0.013523,0.002678,0.000431,0.014338
3818000,0.0324,0.013523,0.002678,0.000431,0.013751
3819000,0.0324,0.013523,0.002678,0.000431,0.014456
3820000,0.0324,0.013523,0.002678,0.000431,0.013046
3821000,0.0324,0.013523,0.002678,0.000431,0.014221
3822000,0.0324,0.013523,0.002678,0.000431,0.014103
3823000,0.0324,0.013523,0.002678,0.000431,0.013868
3824000,0.0324,0.013523,0.002678,0.000431,0.013163
3825000,0.0324,0.013523,0.002678,0.000431,0.014809
3826000,0.0324,0.013523,0.002678,0.000431,0.013633
3827000,0.0324,0.013523,0.002678,0.000431,0.014103
3828000,0.0324,0.013523,0.002678,0.000431,0.014338
3829000,0.0324,0.013523,0.002678,0.000431,0.014221
3830000,0.0324,0.013523,0.002678,0.000431,0.013516
3831000,0.0324,0.013523,0.002678,0.000431,0.013986
3832000,0.0324,0.013523,0.002678,0.000431,0.012811
3833000,0.0324,0.013523,0.002678,0.000431,0.013751
3834000,0.0324,0.013523,0.002678,0.000431,0.011753
3835000,0.0324,0.013523,0.002678,0.000431,0.012340
3836000,0.0324,0.013523,0.002678,0.000431,0.013516
3837000,0.0324,0.013523,0.002678,0.000431,0.013516
3838000,0.0324,0.013523,0.002678,0.000431,0.013163
3839000,0.0324,0.013523,0.002678,0.000431,0.012928
3840000,0.0324,0.013523,0.002678,0.000431,0.013398
3841000,0.0324,0.013523,0.002678,0.000431,0.013281
3842000,0.0324,0.013523,0.002678,0.000431,0.013516
3843000,0.0324,0.013523,0.002678,0.000431,0.013163
3844000,0.0324,0.013523,0.002678,0.000431,0.013046
3845000,0.0324,0.013523,0.002678,0.000431,0.014103
3846000,0.0324,0.013523,0.002678,0.000431,0.012693
3847000,0.0324,0.013523,0.002678,0.000431,0.014221
3848000,0.0324,0.013523,0.002678,0.000431,0.012340
3849000,0.0324,0.013523,0.002678,0.000431,0.012340
3850000,0.0324,0.013523,0.002678,0.000431,0.012576
3851000,0.0324,0.013523,0.002678,0.000431,0.012576
3852000,0.0324,0.013523,0.002678,0.000431,0.011870
3853000,0.0324,0.013523,0.002678,0.000431,0.012223
3854000,0.0324,0.013523,0.002678,0.000431,0.013751
3855000,0.0324,0.013523,0.002678,0.000431,0.012105
3856000,0.0324,0.013523,0.002678,0.000431,0.012340
3857000,0.0324,0.013523,0.002678,0.000431,0.013046
3858000,0.0324,0.013523,0.002678,0.000431,0.012811
3859000,0.0324,0.013523,0.002678,0.000431,0.012693
3860000,0.0324,0.013523,0.002678,0.000431,0.012576
3861000,0.0324,0.013523,0.002678,0.000431,0.012340
3862000,0.0324,0.013523,0.002678,0.000431,0.012811
3863000,0.0324,0.013523,0.002678,0.000431,0.012576
3864000,0.0324,0.013523,0.002678,0.000431,0.012105
3865000,0.0324,0.013523,0.002678,0.000431,0.012928
3866000,0.0324,0.013523,0.002678,0.000431,0.011988
3867000,0.0324,0.013523,0.002678,0.000431,0.013046
3868000,0.0324,0.013523,0.002678,0.000431,0.012223
3869000,0.0324,0.013523,0.002678,0.000431,0.012576
3870000,0.0324,0.013523,0.002678,0.000431,0.012693
3871000,0.0324,0.013523,0.002678,0.000431,0.012458
3872000,0.0324,0.013523,0.002678,0.000431,0.013163
3873000,0.0324,0.013523,0.002678,0.000431,0.012928
3874000,0.0324,0.013523,0.002678,0.000431,0.012693
3875000,0.0324,0.013523,0.002678,0.000431,0.013163
3876000,0.0324,0.013523,0.002678,0.000431,0.012105
3877000,0.0324,0.013523,0.002678,0.000431,0.012693
3878000,0.0324,0.013523,0.002678,0.000431,0.013516
3879000,0.0324,0.013523,0.002678,0.000431,0.011635
3880000,0.0324,0.013523,0.002678,0.000431,0.010930
3881000,0.0324,0.013523,0.002678,0.000431,0.012223
3882000,0.0324,0.013523,0.002678,0.000431,0.011635
3883000,0.0324,0.013523,0.002678,0.000431,0.011753
3884000,0.0324,0.013523,0.002678,0.000431,0.011988
3885000,0.0324,0.013523,0.002678,0.000431,0.011870
3886000,0.0324,0.013523,0.002678,0.000431,0.011988
3887000,0.0324,0.013523,0.002678,0.000431,0.012458
3888000,0.0324,0.013523,0.002678,0.000431,0.011400
3889000,0.0324,0.013523,0.002678,0.000431,0.012105
3890000,0.0324,0.013523,0.002678,0.000431,0.011635
3891000,0.0324,0.013523,0.002678,0.000431,0.012340
3892000,0.0324,0.013523,0.002678,0.000431,0.011283
3893000,0.0324,0.013523,0.002678,0.000431,0.012340
3894000,0.0324,0.013523,0.002678,0.000431,0.012105
3895000,0.0324,0.013523,0.002678,0.000431,0.011870
3896000,0.0324,0.013523,0.002678,0.000431,0.012105
3897000,0.0324,0.013523,0.002678,0.000431,0.011283
3898000,0.0324,0.013523,0.002678,0.000431,0.011870
3899000,0.0324,0.013523,0.002678,0.000431,0.012105
3900000,0.0324,0.013523,0.002678,0.000431,0.011518
3901000,0.0324,0.013523,0.002678,0.000431,0.012576
3902000,0.0324,0.013523,0.002678,0.000431,0.011165
3903000,0.0324,0.013523,0.002678,0.000431,0.011988
3904000,0.0324,0.013523,0.002678,0.000431,0.011870
3905000,0.0324,0.013523,0.002678,0.000431,0.012105
3906000,0.0324,0.013523,0.002678,0.000431,0.011753
3907000,0.0324,0.013523,0.002678,0.000431,0.011988
3908000,0.0324,0.013523,0.002678,0.000431,0.011635
3909000,0.0324,0.013523,0.002678,0.000431,0.012223
3910000,0.0324,0.013523,0.002678,0.000431,0.011518
3911000,0.0324,0.013523,0.002678,0.000431,0.011283
3912000,0.0324,0.013523,0.002678,0.000431,0.010695
3913000,0.0324,0.013523,0.002678,0.000431,0.010930
3914000,0.0324,0.013523,0.002678,0.000431,0.010460
3915000,0.0324,0.013523,0.002678,0.000431,0.011753
3916000,0.0324,0.013523,0.002678,0.000431,0.010813
3917000,0.0324,0.013523,0.002678,0.000431,0.010578
3918000,0.0324,0.013523,0.002678,0.000431,0.011283
3919000,0.0324,0.013523,0.002678,0.000431,0.011753
3920000,0.0324,0.013523,0.002678,0.000431,0.010813
3921000,0.0324,0.013523,0.002678,0.000431,0.010930
3922000,0.0324,0.013523,0.002678,0.000431,0.011753
3923000,0.0324,0.013523,0.002678,0.000431,0.010695
3924000,0.0324,0.013523,0.002678,0.000431,0.009637
3925000,0.0324,0.013523,0.002678,0.000431,0.009285
3926000,0.0324,0.013523,0.002678,0.000431,0.009872
3927000,0.0324,0.013523,0.002678,0.000431,0.009637
3928000,0.0324,0.013523,0.002678,0.000431,0.010342
3929000,0.0324,0.013523,0.002678,0.000431,0.008815
3930000,0.0324,0.013523,0.002678,0.000431,0.009050
3931000,0.0324,0.013523,0.002678,0.000431,0.009990
3932000,0.0324,0.013523,0.002678,0.000431,0.009755
3933000,0.0324,0.013523,0.002678,0.000431,0.008697
3934000,0.0324,0.013523,0.002678,0.000431,0.010225
3935000,0.0324,0.013523,0.002678,0.000431,0.009637
3936000,0.0324,0.013523,0.002678,0.000431,0.009167
3937000,0.0324,0.013523,0.002678,0.000431,0.009872
3938000,0.0324,0.013523,0.002678,0.000431,0.009755
3939000,0.0324,0.013523,0.002678,0.000431,0.008580
3940000,0.0324,0.013523,0.002678,0.000431,0.010225
3941000,0.0324,0.013523,0.002678,0.000431,0.009637
3942000,0.0324,0.013523,0.002678,0.000431,0.009050
3943000,0.0324,0.013523,0.002678,0.000431,0.009637
3944000,0.0324,0.013523,0.002678,0.000431,0.009520
3945000,0.0324,0.013523,0.002678,0.000431,0.009755
3946000,0.0324,0.013523,0.002678,0.000431,0.009050
3947000,0.0324,0.013523,0.002678,0.000431,0.009990
3948000,0.0324,0.013523,0.002678,0.000431,0.009285
3949000,0.0324,0.013523,0.002678,0.000431,0.009755
3950000,0.0324,0.013523,0.002678,0.000431,0.009167
3951000,0.0324,0.013523,0.002678,0.000431,0.008462
3952000,0.0324,0.013523,0.002678,0.000431,0.008345
3953000,0.0324,0.013523,0.002678,0.000431,0.009050
3954000,0.0324,0.013523,0.002678,0.000431,0.008345
3955000,0.0324,0.013523,0.002678,0.000431,0.008697
3956000,0.0324,0.013523,0.002678,0.000431,0.009050
3957000,0.0324,0.013523,0.002678,0.000431,0.008697
3958000,0.0324,0.013523,0.002678,0.000431,0.008815
3959000,0.0324,0.013523,0.002678,0.000431,0.008815
3960000,0.0324,0.013523,0.002678,0.000431,0.008462
3961000,0.0324,0.013523,0.002678,0.000431,0.008815
3962000,0.0324,0.013523,0.002678,0.000431,0.008697
3963000,0.0324,0.013523,0.002678,0.000431,0.009167
3964000,0.0324,0.013523,0.002678,0.000431,0.009167
3965000,0.0324,0.013523,0.002678,0.000431,0.008697
3966000,0.0324,0.013523,0.002678,0.000431,0.008580
3967000,0.0324,0.013523,0.002678,0.000431,0.008697
3968000,0.0324,0.013523,0.002678,0.000431,0.009520
3969000,0.0324,0.013523,0.002678,0.000431,0.008815
3970000,0.0324,0.013523,0.002678,0.000431,0.008815
3971000,0.0324,0.013523,0.002678,0.000431,0.008580
3972000,0.0324,0.013523,0.002678,0.000431,0.008932
3973000,0.0324,0.013523,0.002678,0.000431,0.008109
3974000,0.0324,0.013523,0.002678,0.000431,0.007992
3975000,0.0324,0.013523,0.002678,0.000431,0.008345
3976000,0.0324,0.013523,0.002678,0.000431,0.007757
3977000,0.0324,0.013523,0.002678,0.000431,0.008109
3978000,0.0324,0.013523,0.002678,0.000431,0.007874
3979000,0.0324,0.013523,0.002678,0.000431,0.008109
3980000,0.0324,0.013523,0.002678,0.000431,0.008580
3981000,0.0324,0.013523,0.002678,0.000431,0.007169
3982000,0.0324,0.013523,0.002678,0.000431,0.008815
3983000,0.0324,0.013523,0.002678,0.000431,0.008109
3984000,0.0324,0.013523,0.002678,0.000431,0.007404
3985000,0.0324,0.013523,0.002678,0.000431,0.008580
3986000,0.0324,0.013523,0.002678,0.000431,0.007757
3987000,0.0324,0.013523,0.002678,0.000431,0.007757
3988000,0.0324,0.013523,0.002678,0.000431,0.007874
3989000,0.0324,0.013523,0.002678,0.000431,0.008227
3990000,0.0324,0.013523,0.002678,0.000431,0.008109
3991000,0.0324,0.013523,0.002678,0.000431,0.007404
3992000,0.0324,0.013523,0.002678,0.000431,0.009050
3993000,0.0324,0.013523,0.002678,0.000431,0.007404
3994000,0.0324,0.013523,0.002678,0.000431,0.008109
3995000,0.0324,0.013523,0.002678,0.000431,0.008462
3996000,0.0324,0.013523,0.002678,0.000431,0.007874
3997000,0.0324,0.013523,0.002678,0.000431,0.007874
3998000,0.0324,0.013523,0.002678,0.000431,0.009167
3999000,0.0324,0.013523,0.002678,0.000431,0.006699
