Cycle,Area(mm^2),PeakDynamic(W),SubthresholdLeakage(W),GateLeakage(W),RunTimeDynamic(W)
1000,0.0324,0.013523,0.002678,0.000431,0.000353
2000,0.0324,0.013523,0.002678,0.000431,0.000000
3000,0.0324,0.013523,0.002678,0.000431,0.000000
4000,0.0324,0.013523,0.002678,0.000431,0.000000
5000,0.0324,0.013523,0.002678,0.000431,0.000000
6000,0.0324,0.013523,0.002678,0.000431,0.001763
7000,0.0324,0.013523,0.002678,0.000431,0.010342
8000,0.0324,0.013523,0.002678,0.000431,0.003526
9000,0.0324,0.013523,0.002678,0.000431,0.001645
10000,0.0324,0.013523,0.002678,0.000431,0.001645
11000,0.0324,0.013523,0.002678,0.000431,0.003643
12000,0.0324,0.013523,0.002678,0.000431,0.004231
13000,0.0324,0.013523,0.002678,0.000431,0.004584
14000,0.0324,0.013523,0.002678,0.000431,0.006111
15000,0.0324,0.013523,0.002678,0.000431,0.002821
16000,0.0324,0.013523,0.002678,0.000431,0.003996
17000,0.0324,0.013523,0.002678,0.000431,0.007169
18000,0.0324,0.013523,0.002678,0.000431,0.006347
19000,0.0324,0.013523,0.002678,0.000431,0.007169
20000,0.0324,0.013523,0.002678,0.000431,0.004584
21000,0.0324,0.013523,0.002678,0.000431,0.008697
22000,0.0324,0.013523,0.002678,0.000431,0.007052
23000,0.0324,0.013523,0.002678,0.000431,0.002468
24000,0.0324,0.013523,0.002678,0.000431,0.007287
25000,0.0324,0.013523,0.002678,0.000431,0.004349
26000,0.0324,0.013523,0.002678,0.000431,0.003643
27000,0.0324,0.013523,0.002678,0.000431,0.003996
28000,0.0324,0.013523,0.002678,0.000431,0.006111
29000,0.0324,0.013523,0.002678,0.000431,0.003408
30000,0.0324,0.013523,0.002678,0.000431,0.007052
31000,0.0324,0.013523,0.002678,0.000431,0.002351
32000,0.0324,0.013523,0.002678,0.000431,0.007287
33000,0.0324,0.013523,0.002678,0.000431,0.005994
34000,0.0324,0.013523,0.002678,0.000431,0.003878
35000,0.0324,0.013523,0.002678,0.000431,0.006934
36000,0.0324,0.013523,0.002678,0.000431,0.005759
37000,0.0324,0.013523,0.002678,0.000431,0.002938
38000,0.0324,0.013523,0.002678,0.000431,0.005759
39000,0.0324,0.013523,0.002678,0.000431,0.004701
40000,0.0324,0.013523,0.002678,0.000431,0.003291
41000,0.0324,0.013523,0.002678,0.000431,0.008580
42000,0.0324,0.013523,0.002678,0.000431,0.005406
43000,0.0324,0.013523,0.002678,0.000431,0.007169
44000,0.0324,0.013523,0.002678,0.000431,0.004466
45000,0.0324,0.013523,0.002678,0.000431,0.005054
46000,0.0324,0.013523,0.002678,0.000431,0.009285
47000,0.0324,0.013523,0.002678,0.000431,0.003526
48000,0.0324,0.013523,0.002678,0.000431,0.003643
49000,0.0324,0.013523,0.002678,0.000431,0.005641
50000,0.0324,0.013523,0.002678,0.000431,0.005641
51000,0.0324,0.013523,0.002678,0.000431,0.002468
52000,0.0324,0.013523,0.002678,0.000431,0.005524
53000,0.0324,0.013523,0.002678,0.000431,0.006582
54000,0.0324,0.013523,0.002678,0.000431,0.006934
55000,0.0324,0.013523,0.002678,0.000431,0.002586
56000,0.0324,0.013523,0.002678,0.000431,0.006934
57000,0.0324,0.013523,0.002678,0.000431,0.005994
58000,0.0324,0.013523,0.002678,0.000431,0.002938
59000,0.0324,0.013523,0.002678,0.000431,0.003526
60000,0.0324,0.013523,0.002678,0.000431,0.004466
61000,0.0324,0.013523,0.002678,0.000431,0.002821
62000,0.0324,0.013523,0.002678,0.000431,0.004349
63000,0.0324,0.013523,0.002678,0.000431,0.006817
64000,0.0324,0.013523,0.002678,0.000431,0.005054
65000,0.0324,0.013523,0.002678,0.000431,0.005759
66000,0.0324,0.013523,0.002678,0.000431,0.003643
67000,0.0324,0.013523,0.002678,0.000431,0.006111
68000,0.0324,0.013523,0.002678,0.000431,0.005759
69000,0.0324,0.013523,0.002678,0.000431,0.003056
70000,0.0324,0.013523,0.002678,0.000431,0.005171
71000,0.0324,0.013523,0.002678,0.000431,0.004466
72000,0.0324,0.013523,0.002678,0.000431,0.001293
73000,0.0324,0.013523,0.002678,0.000431,0.006464
74000,0.0324,0.013523,0.002678,0.000431,0.006582
75000,0.0324,0.013523,0.002678,0.000431,0.006817
76000,0.0324,0.013523,0.002678,0.000431,0.003291
77000,0.0324,0.013523,0.002678,0.000431,0.005054
78000,0.0324,0.013523,0.002678,0.000431,0.008345
79000,0.0324,0.013523,0.002678,0.000431,0.005406
80000,0.0324,0.013523,0.002678,0.000431,0.002351
81000,0.0324,0.013523,0.002678,0.000431,0.005759
82000,0.0324,0.013523,0.002678,0.000431,0.004349
83000,0.0324,0.013523,0.002678,0.000431,0.002468
84000,0.0324,0.013523,0.002678,0.000431,0.005524
85000,0.0324,0.013523,0.002678,0.000431,0.003996
86000,0.0324,0.013523,0.002678,0.000431,0.005876
87000,0.0324,0.013523,0.002678,0.000431,0.003408
88000,0.0324,0.013523,0.002678,0.000431,0.005406
89000,0.0324,0.013523,0.002678,0.000431,0.006111
90000,0.0324,0.013523,0.002678,0.000431,0.002938
91000,0.0324,0.013523,0.002678,0.000431,0.003408
92000,0.0324,0.013523,0.002678,0.000431,0.005054
93000,0.0324,0.013523,0.002678,0.000431,0.004113
94000,0.0324,0.013523,0.002678,0.000431,0.001528
95000,0.0324,0.013523,0.002678,0.000431,0.005171
96000,0.0324,0.013523,0.002678,0.000431,0.003291
97000,0.0324,0.013523,0.002678,0.000431,0.006111
98000,0.0324,0.013523,0.002678,0.000431,0.003291
99000,0.0324,0.013523,0.002678,0.000431,0.003643
100000,0.0324,0.013523,0.002678,0.000431,0.005641
101000,0.0324,0.013523,0.002678,0.000431,0.002116
102000,0.0324,0.013523,0.002678,0.000431,0.003291
103000,0.0324,0.013523,0.002678,0.000431,0.004113
104000,0.0324,0.013523,0.002678,0.000431,0.001880
105000,0.0324,0.013523,0.002678,0.000431,0.002938
106000,0.0324,0.013523,0.002678,0.000431,0.003643
107000,0.0324,0.013523,0.002678,0.000431,0.004584
108000,0.0324,0.013523,0.002678,0.000431,0.006582
109000,0.0324,0.013523,0.002678,0.000431,0.002586
110000,0.0324,0.013523,0.002678,0.000431,0.003056
111000,0.0324,0.013523,0.002678,0.000431,0.004584
112000,0.0324,0.013523,0.002678,0.000431,0.003173
113000,0.0324,0.013523,0.002678,0.000431,0.006464
114000,0.0324,0.013523,0.002678,0.000431,0.002586
115000,0.0324,0.013523,0.002678,0.000431,0.005054
116000,0.0324,0.013523,0.002678,0.000431,0.003761
117000,0.0324,0.013523,0.002678,0.000431,0.002938
118000,0.0324,0.013523,0.002678,0.000431,0.005641
119000,0.0324,0.013523,0.002678,0.000431,0.005406
120000,0.0324,0.013523,0.002678,0.000431,0.005289
121000,0.0324,0.013523,0.002678,0.000431,0.003173
122000,0.0324,0.013523,0.002678,0.000431,0.003408
123000,0.0324,0.013523,0.002678,0.000431,0.004466
124000,0.0324,0.013523,0.002678,0.000431,0.005876
125000,0.0324,0.013523,0.002678,0.000431,0.003996
126000,0.0324,0.013523,0.002678,0.000431,0.002468
127000,0.0324,0.013523,0.002678,0.000431,0.005289
128000,0.0324,0.013523,0.002678,0.000431,0.003878
129000,0.0324,0.013523,0.002678,0.000431,0.004819
130000,0.0324,0.013523,0.002678,0.000431,0.002351
131000,0.0324,0.013523,0.002678,0.000431,0.002703
132000,0.0324,0.013523,0.002678,0.000431,0.004584
133000,0.0324,0.013523,0.002678,0.000431,0.002703
134000,0.0324,0.013523,0.002678,0.000431,0.007404
135000,0.0324,0.013523,0.002678,0.000431,0.002468
136000,0.0324,0.013523,0.002678,0.000431,0.005289
137000,0.0324,0.013523,0.002678,0.000431,0.004349
138000,0.0324,0.013523,0.002678,0.000431,0.001880
139000,0.0324,0.013523,0.002678,0.000431,0.005994
140000,0.0324,0.013523,0.002678,0.000431,0.002351
141000,0.0324,0.013523,0.002678,0.000431,0.004231
142000,0.0324,0.013523,0.002678,0.000431,0.003878
143000,0.0324,0.013523,0.002678,0.000431,0.004231
144000,0.0324,0.013523,0.002678,0.000431,0.004466
145000,0.0324,0.013523,0.002678,0.000431,0.001763
146000,0.0324,0.013523,0.002678,0.000431,0.002351
147000,0.0324,0.013523,0.002678,0.000431,0.003173
148000,0.0324,0.013523,0.002678,0.000431,0.003291
149000,0.0324,0.013523,0.002678,0.000431,0.004113
150000,0.0324,0.013523,0.002678,0.000431,0.001880
151000,0.0324,0.013523,0.002678,0.000431,0.003526
152000,0.0324,0.013523,0.002678,0.000431,0.002703
153000,0.0324,0.013523,0.002678,0.000431,0.003408
154000,0.0324,0.013523,0.002678,0.000431,0.002468
155000,0.0324,0.013523,0.002678,0.000431,0.001998
156000,0.0324,0.013523,0.002678,0.000431,0.001410
157000,0.0324,0.013523,0.002678,0.000431,0.003408
158000,0.0324,0.013523,0.002678,0.000431,0.002586
159000,0.0324,0.013523,0.002678,0.000431,0.003643
160000,0.0324,0.013523,0.002678,0.000431,0.002233
161000,0.0324,0.013523,0.002678,0.000431,0.001645
162000,0.0324,0.013523,0.002678,0.000431,0.003056
163000,0.0324,0.013523,0.002678,0.000431,0.005406
164000,0.0324,0.013523,0.002678,0.000431,0.002703
165000,0.0324,0.013523,0.002678,0.000431,0.003878
166000,0.0324,0.013523,0.002678,0.000431,0.002351
167000,0.0324,0.013523,0.002678,0.000431,0.003291
168000,0.0324,0.013523,0.002678,0.000431,0.004231
169000,0.0324,0.013523,0.002678,0.000431,0.002586
170000,0.0324,0.013523,0.002678,0.000431,0.001998
171000,0.0324,0.013523,0.002678,0.000431,0.003643
172000,0.0324,0.013523,0.002678,0.000431,0.003291
173000,0.0324,0.013523,0.002678,0.000431,0.003643
174000,0.0324,0.013523,0.002678,0.000431,0.002938
175000,0.0324,0.013523,0.002678,0.000431,0.001058
176000,0.0324,0.013523,0.002678,0.000431,0.002233
177000,0.0324,0.013523,0.002678,0.000431,0.001763
178000,0.0324,0.013523,0.002678,0.000431,0.003173
179000,0.0324,0.013523,0.002678,0.000431,0.002468
180000,0.0324,0.013523,0.002678,0.000431,0.002586
181000,0.0324,0.013523,0.002678,0.000431,0.003643
182000,0.0324,0.013523,0.002678,0.000431,0.003173
183000,0.0324,0.013523,0.002678,0.000431,0.002703
184000,0.0324,0.013523,0.002678,0.000431,0.001880
185000,0.0324,0.013523,0.002678,0.000431,0.003056
186000,0.0324,0.013523,0.002678,0.000431,0.002233
187000,0.0324,0.013523,0.002678,0.000431,0.003291
188000,0.0324,0.013523,0.002678,0.000431,0.003291
189000,0.0324,0.013523,0.002678,0.000431,0.002233
190000,0.0324,0.013523,0.002678,0.000431,0.003761
191000,0.0324,0.013523,0.002678,0.000431,0.002468
192000,0.0324,0.013523,0.002678,0.000431,0.002233
193000,0.0324,0.013523,0.002678,0.000431,0.001410
194000,0.0324,0.013523,0.002678,0.000431,0.002586
195000,0.0324,0.013523,0.002678,0.000431,0.002586
196000,0.0324,0.013523,0.002678,0.000431,0.003173
197000,0.0324,0.013523,0.002678,0.000431,0.002703
198000,0.0324,0.013523,0.002678,0.000431,0.002703
199000,0.0324,0.013523,0.002678,0.000431,0.003291
200000,0.0324,0.013523,0.002678,0.000431,0.002821
201000,0.0324,0.013523,0.002678,0.000431,0.002233
202000,0.0324,0.013523,0.002678,0.000431,0.001528
203000,0.0324,0.013523,0.002678,0.000431,0.003408
204000,0.0324,0.013523,0.002678,0.000431,0.002821
205000,0.0324,0.013523,0.002678,0.000431,0.003526
206000,0.0324,0.013523,0.002678,0.000431,0.001998
207000,0.0324,0.013523,0.002678,0.000431,0.001880
208000,0.0324,0.013523,0.002678,0.000431,0.003173
209000,0.0324,0.013523,0.002678,0.000431,0.003056
210000,0.0324,0.013523,0.002678,0.000431,0.002116
211000,0.0324,0.013523,0.002678,0.000431,0.001880
212000,0.0324,0.013523,0.002678,0.000431,0.003408
213000,0.0324,0.013523,0.002678,0.000431,0.001528
214000,0.0324,0.013523,0.002678,0.000431,0.002351
215000,0.0324,0.013523,0.002678,0.000431,0.001175
216000,0.0324,0.013523,0.002678,0.000431,0.002821
217000,0.0324,0.013523,0.002678,0.000431,0.003056
218000,0.0324,0.013523,0.002678,0.000431,0.002351
219000,0.0324,0.013523,0.002678,0.000431,0.001410
220000,0.0324,0.013523,0.002678,0.000431,0.002233
221000,0.0324,0.013523,0.002678,0.000431,0.002468
222000,0.0324,0.013523,0.002678,0.000431,0.002351
223000,0.0324,0.013523,0.002678,0.000431,0.003291
224000,0.0324,0.013523,0.002678,0.000431,0.002703
225000,0.0324,0.013523,0.002678,0.000431,0.001645
226000,0.0324,0.013523,0.002678,0.000431,0.002821
227000,0.0324,0.013523,0.002678,0.000431,0.002821
228000,0.0324,0.013523,0.002678,0.000431,0.001058
229000,0.0324,0.013523,0.002678,0.000431,0.001645
230000,0.0324,0.013523,0.002678,0.000431,0.002116
231000,0.0324,0.013523,0.002678,0.000431,0.001763
232000,0.0324,0.013523,0.002678,0.000431,0.001880
233000,0.0324,0.013523,0.002678,0.000431,0.001645
234000,0.0324,0.013523,0.002678,0.000431,0.001880
235000,0.0324,0.013523,0.002678,0.000431,0.002586
236000,0.0324,0.013523,0.002678,0.000431,0.001763
237000,0.0324,0.013523,0.002678,0.000431,0.001998
238000,0.0324,0.013523,0.002678,0.000431,0.001998
239000,0.0324,0.013523,0.002678,0.000431,0.001175
240000,0.0324,0.013523,0.002678,0.000431,0.001998
241000,0.0324,0.013523,0.002678,0.000431,0.002233
242000,0.0324,0.013523,0.002678,0.000431,0.001293
243000,0.0324,0.013523,0.002678,0.000431,0.001763
244000,0.0324,0.013523,0.002678,0.000431,0.002116
245000,0.0324,0.013523,0.002678,0.000431,0.001175
246000,0.0324,0.013523,0.002678,0.000431,0.002938
247000,0.0324,0.013523,0.002678,0.000431,0.001645
248000,0.0324,0.013523,0.002678,0.000431,0.001880
249000,0.0324,0.013523,0.002678,0.000431,0.002468
250000,0.0324,0.013523,0.002678,0.000431,0.001763
251000,0.0324,0.013523,0.002678,0.000431,0.002116
252000,0.0324,0.013523,0.002678,0.000431,0.002233
253000,0.0324,0.013523,0.002678,0.000431,0.001293
254000,0.0324,0.013523,0.002678,0.000431,0.001293
255000,0.0324,0.013523,0.002678,0.000431,0.001175
256000,0.0324,0.013523,0.002678,0.000431,0.001293
257000,0.0324,0.013523,0.002678,0.000431,0.002703
258000,0.0324,0.013523,0.002678,0.000431,0.001763
259000,0.0324,0.013523,0.002678,0.000431,0.000940
260000,0.0324,0.013523,0.002678,0.000431,0.001763
261000,0.0324,0.013523,0.002678,0.000431,0.002821
262000,0.0324,0.013523,0.002678,0.000431,0.001880
263000,0.0324,0.013523,0.002678,0.000431,0.001998
264000,0.0324,0.013523,0.002678,0.000431,0.001293
265000,0.0324,0.013523,0.002678,0.000431,0.001880
266000,0.0324,0.013523,0.002678,0.000431,0.001763
267000,0.0324,0.013523,0.002678,0.000431,0.001528
268000,0.0324,0.013523,0.002678,0.000431,0.002821
269000,0.0324,0.013523,0.002678,0.000431,0.001763
270000,0.0324,0.013523,0.002678,0.000431,0.002468
271000,0.0324,0.013523,0.002678,0.000431,0.001763
272000,0.0324,0.013523,0.002678,0.000431,0.001528
273000,0.0324,0.013523,0.002678,0.000431,0.001998
274000,0.0324,0.013523,0.002678,0.000431,0.001175
275000,0.0324,0.013523,0.002678,0.000431,0.001293
276000,0.0324,0.013523,0.002678,0.000431,0.002351
277000,0.0324,0.013523,0.002678,0.000431,0.001763
278000,0.0324,0.013523,0.002678,0.000431,0.001293
279000,0.0324,0.013523,0.002678,0.000431,0.001880
280000,0.0324,0.013523,0.002678,0.000431,0.001293
281000,0.0324,0.013523,0.002678,0.000431,0.002468
282000,0.0324,0.013523,0.002678,0.000431,0.002821
283000,0.0324,0.013523,0.002678,0.000431,0.001175
284000,0.0324,0.013523,0.002678,0.000431,0.001880
285000,0.0324,0.013523,0.002678,0.000431,0.001175
286000,0.0324,0.013523,0.002678,0.000431,0.001528
287000,0.0324,0.013523,0.002678,0.000431,0.003056
288000,0.0324,0.013523,0.002678,0.000431,0.001058
289000,0.0324,0.013523,0.002678,0.000431,0.001175
290000,0.0324,0.013523,0.002678,0.000431,0.002351
291000,0.0324,0.013523,0.002678,0.000431,0.001293
292000,0.0324,0.013523,0.002678,0.000431,0.002351
293000,0.0324,0.013523,0.002678,0.000431,0.002351
294000,0.0324,0.013523,0.002678,0.000431,0.001645
295000,0.0324,0.013523,0.002678,0.000431,0.001998
296000,0.0324,0.013523,0.002678,0.000431,0.001528
297000,0.0324,0.013523,0.002678,0.000431,0.001528
298000,0.0324,0.013523,0.002678,0.000431,0.002233
299000,0.0324,0.013523,0.002678,0.000431,0.002116
300000,0.0324,0.013523,0.002678,0.000431,0.002116
301000,0.0324,0.013523,0.002678,0.000431,0.002468
302000,0.0324,0.013523,0.002678,0.000431,0.002468
303000,0.0324,0.013523,0.002678,0.000431,0.001763
304000,0.0324,0.013523,0.002678,0.000431,0.001880
305000,0.0324,0.013523,0.002678,0.000431,0.001058
306000,0.0324,0.013523,0.002678,0.000431,0.003056
307000,0.0324,0.013523,0.002678,0.000431,0.002468
308000,0.0324,0.013523,0.002678,0.000431,0.001175
309000,0.0324,0.013523,0.002678,0.000431,0.002703
310000,0.0324,0.013523,0.002678,0.000431,0.002233
311000,0.0324,0.013523,0.002678,0.000431,0.001293
312000,0.0324,0.013523,0.002678,0.000431,0.002586
313000,0.0324,0.013523,0.002678,0.000431,0.002351
314000,0.0324,0.013523,0.002678,0.000431,0.001998
315000,0.0324,0.013523,0.002678,0.000431,0.002703
316000,0.0324,0.013523,0.002678,0.000431,0.002351
317000,0.0324,0.013523,0.002678,0.000431,0.001998
318000,0.0324,0.013523,0.002678,0.000431,0.002821
319000,0.0324,0.013523,0.002678,0.000431,0.002233
320000,0.0324,0.013523,0.002678,0.000431,0.001880
321000,0.0324,0.013523,0.002678,0.000431,0.002468
322000,0.0324,0.013523,0.002678,0.000431,0.000940
323000,0.0324,0.013523,0.002678,0.000431,0.002703
324000,0.0324,0.013523,0.002678,0.000431,0.002703
325000,0.0324,0.013523,0.002678,0.000431,0.001410
326000,0.0324,0.013523,0.002678,0.000431,0.001763
327000,0.0324,0.013523,0.002678,0.000431,0.002703
328000,0.0324,0.013523,0.002678,0.000431,0.001293
329000,0.0324,0.013523,0.002678,0.000431,0.002821
330000,0.0324,0.013523,0.002678,0.000431,0.001880
331000,0.0324,0.013523,0.002678,0.000431,0.001880
332000,0.0324,0.013523,0.002678,0.000431,0.003056
333000,0.0324,0.013523,0.002678,0.000431,0.001880
334000,0.0324,0.013523,0.002678,0.000431,0.002351
335000,0.0324,0.013523,0.002678,0.000431,0.002703
336000,0.0324,0.013523,0.002678,0.000431,0.002468
337000,0.0324,0.013523,0.002678,0.000431,0.002351
338000,0.0324,0.013523,0.002678,0.000431,0.002468
339000,0.0324,0.013523,0.002678,0.000431,0.001645
340000,0.0324,0.013523,0.002678,0.000431,0.002116
341000,0.0324,0.013523,0.002678,0.000431,0.002586
342000,0.0324,0.013523,0.002678,0.000431,0.001058
343000,0.0324,0.013523,0.002678,0.000431,0.002821
344000,0.0324,0.013523,0.002678,0.000431,0.003056
345000,0.0324,0.013523,0.002678,0.000431,0.001058
346000,0.0324,0.013523,0.002678,0.000431,0.002116
347000,0.0324,0.013523,0.002678,0.000431,0.001175
348000,0.0324,0.013523,0.002678,0.000431,0.002233
349000,0.0324,0.013523,0.002678,0.000431,0.002468
350000,0.0324,0.013523,0.002678,0.000431,0.001175
351000,0.0324,0.013523,0.002678,0.000431,0.002351
352000,0.0324,0.013523,0.002678,0.000431,0.002703
353000,0.0324,0.013523,0.002678,0.000431,0.001645
354000,0.0324,0.013523,0.002678,0.000431,0.002116
355000,0.0324,0.013523,0.002678,0.000431,0.002468
356000,0.0324,0.013523,0.002678,0.000431,0.001763
357000,0.0324,0.013523,0.002678,0.000431,0.002586
358000,0.0324,0.013523,0.002678,0.000431,0.002351
359000,0.0324,0.013523,0.002678,0.000431,0.001175
360000,0.0324,0.013523,0.002678,0.000431,0.001880
361000,0.0324,0.013523,0.002678,0.000431,0.002116
362000,0.0324,0.013523,0.002678,0.000431,0.001998
363000,0.0324,0.013523,0.002678,0.000431,0.002116
364000,0.0324,0.013523,0.002678,0.000431,0.002351
365000,0.0324,0.013523,0.002678,0.000431,0.002116
366000,0.0324,0.013523,0.002678,0.000431,0.001528
367000,0.0324,0.013523,0.002678,0.000431,0.001998
368000,0.0324,0.013523,0.002678,0.000431,0.002116
369000,0.0324,0.013523,0.002678,0.000431,0.001763
370000,0.0324,0.013523,0.002678,0.000431,0.000823
371000,0.0324,0.013523,0.002678,0.000431,0.001645
372000,0.0324,0.013523,0.002678,0.000431,0.002116
373000,0.0324,0.013523,0.002678,0.000431,0.002116
374000,0.0324,0.013523,0.002678,0.000431,0.000940
375000,0.0324,0.013523,0.002678,0.000431,0.001528
376000,0.0324,0.013523,0.002678,0.000431,0.001528
377000,0.0324,0.013523,0.002678,0.000431,0.001293
378000,0.0324,0.013523,0.002678,0.000431,0.001763
379000,0.0324,0.013523,0.002678,0.000431,0.002116
380000,0.0324,0.013523,0.002678,0.000431,0.002351
381000,0.0324,0.013523,0.002678,0.000431,0.001645
382000,0.0324,0.013523,0.002678,0.000431,0.001410
383000,0.0324,0.013523,0.002678,0.000431,0.001645
384000,0.0324,0.013523,0.002678,0.000431,0.002351
385000,0.0324,0.013523,0.002678,0.000431,0.001175
386000,0.0324,0.013523,0.002678,0.000431,0.001763
387000,0.0324,0.013523,0.002678,0.000431,0.001763
388000,0.0324,0.013523,0.002678,0.000431,0.001880
389000,0.0324,0.013523,0.002678,0.000431,0.001880
390000,0.0324,0.013523,0.002678,0.000431,0.001410
391000,0.0324,0.013523,0.002678,0.000431,0.001058
392000,0.0324,0.013523,0.002678,0.000431,0.002116
393000,0.0324,0.013523,0.002678,0.000431,0.001058
394000,0.0324,0.013523,0.002678,0.000431,0.001528
395000,0.0324,0.013523,0.002678,0.000431,0.001645
396000,0.0324,0.013523,0.002678,0.000431,0.001528
397000,0.0324,0.013523,0.002678,0.000431,0.001763
398000,0.0324,0.013523,0.002678,0.000431,0.001528
399000,0.0324,0.013523,0.002678,0.000431,0.001645
400000,0.0324,0.013523,0.002678,0.000431,0.001528
401000,0.0324,0.013523,0.002678,0.000431,0.001293
402000,0.0324,0.013523,0.002678,0.000431,0.001763
403000,0.0324,0.013523,0.002678,0.000431,0.001645
404000,0.0324,0.013523,0.002678,0.000431,0.001763
405000,0.0324,0.013523,0.002678,0.000431,0.001293
406000,0.0324,0.013523,0.002678,0.000431,0.001763
407000,0.0324,0.013523,0.002678,0.000431,0.001880
408000,0.0324,0.013523,0.002678,0.000431,0.001293
409000,0.0324,0.013523,0.002678,0.000431,0.001528
410000,0.0324,0.013523,0.002678,0.000431,0.001528
411000,0.0324,0.013523,0.002678,0.000431,0.001763
412000,0.0324,0.013523,0.002678,0.000431,0.001880
413000,0.0324,0.013523,0.002678,0.000431,0.001175
414000,0.0324,0.013523,0.002678,0.000431,0.001880
415000,0.0324,0.013523,0.002678,0.000431,0.001880
416000,0.0324,0.013523,0.002678,0.000431,0.001058
417000,0.0324,0.013523,0.002678,0.000431,0.001763
418000,0.0324,0.013523,0.002678,0.000431,0.001528
419000,0.0324,0.013523,0.002678,0.000431,0.001763
420000,0.0324,0.013523,0.002678,0.000431,0.001410
421000,0.0324,0.013523,0.002678,0.000431,0.001175
422000,0.0324,0.013523,0.002678,0.000431,0.001880
423000,0.0324,0.013523,0.002678,0.000431,0.001645
424000,0.0324,0.013523,0.002678,0.000431,0.001175
425000,0.0324,0.013523,0.002678,0.000431,0.002116
426000,0.0324,0.013523,0.002678,0.000431,0.001645
427000,0.0324,0.013523,0.002678,0.000431,0.001645
428000,0.0324,0.013523,0.002678,0.000431,0.001763
429000,0.0324,0.013523,0.002678,0.000431,0.001293
430000,0.0324,0.013523,0.002678,0.000431,0.001763
431000,0.0324,0.013523,0.002678,0.000431,0.001645
432000,0.0324,0.013523,0.002678,0.000431,0.001293
433000,0.0324,0.013523,0.002678,0.000431,0.001880
434000,0.0324,0.013523,0.002678,0.000431,0.001645
435000,0.0324,0.013523,0.002678,0.000431,0.001763
436000,0.0324,0.013523,0.002678,0.000431,0.000940
437000,0.0324,0.013523,0.002678,0.000431,0.001645
438000,0.0324,0.013523,0.002678,0.000431,0.001645
439000,0.0324,0.013523,0.002678,0.000431,0.001645
440000,0.0324,0.013523,0.002678,0.000431,0.001410
441000,0.0324,0.013523,0.002678,0.000431,0.001645
442000,0.0324,0.013523,0.002678,0.000431,0.001763
443000,0.0324,0.013523,0.002678,0.000431,0.001528
444000,0.0324,0.013523,0.002678,0.000431,0.001528
445000,0.0324,0.013523,0.002678,0.000431,0.001645
446000,0.0324,0.013523,0.002678,0.000431,0.001058
447000,0.0324,0.013523,0.002678,0.000431,0.000940
448000,0.0324,0.013523,0.002678,0.000431,0.001175
449000,0.0324,0.013523,0.002678,0.000431,0.001175
450000,0.0324,0.013523,0.002678,0.000431,0.001175
451000,0.0324,0.013523,0.002678,0.000431,0.001058
452000,0.0324,0.013523,0.002678,0.000431,0.001058
453000,0.0324,0.013523,0.002678,0.000431,0.001175
454000,0.0324,0.013523,0.002678,0.000431,0.001175
455000,0.0324,0.013523,0.002678,0.000431,0.001175
