Cycle,Area(mm^2),PeakDynamic(W),SubthresholdLeakage(W),GateLeakage(W),RunTimeDynamic(W)
1000,0.0324,0.013523,0.002678,0.000431,0.000000
2000,0.0324,0.013523,0.002678,0.000431,0.000000
3000,0.0324,0.013523,0.002678,0.000431,0.000000
4000,0.0324,0.013523,0.002678,0.000431,0.000000
5000,0.0324,0.013523,0.002678,0.000431,0.000000
6000,0.0324,0.013523,0.002678,0.000431,1.457232
7000,0.0324,0.013523,0.002678,0.000431,2.146300
8000,0.0324,0.013523,0.002678,0.000431,1.684179
9000,0.0324,0.013523,0.002678,0.000431,2.231625
10000,0.0324,0.013523,0.002678,0.000431,3.038691
11000,0.0324,0.013523,0.002678,0.000431,2.930918
12000,0.0324,0.013523,0.002678,0.000431,4.190232
13000,0.0324,0.013523,0.002678,0.000431,4.085750
14000,0.0324,0.013523,0.002678,0.000431,3.899115
15000,0.0324,0.013523,0.002678,0.000431,3.884894
16000,0.0324,0.013523,0.002678,0.000431,3.972218
17000,0.0324,0.013523,0.002678,0.000431,4.040619
18000,0.0324,0.013523,0.002678,0.000431,4.010179
19000,0.0324,0.013523,0.002678,0.000431,4.033685
20000,0.0324,0.013523,0.002678,0.000431,4.066475
21000,0.0324,0.013523,0.002678,0.000431,4.066123
22000,0.0324,0.013523,0.002678,0.000431,4.038386
23000,0.0324,0.013523,0.002678,0.000431,4.044497
24000,0.0324,0.013523,0.002678,0.000431,4.052959
25000,0.0324,0.013523,0.002678,0.000431,4.050961
26000,0.0324,0.013523,0.002678,0.000431,3.993960
27000,0.0324,0.013523,0.002678,0.000431,4.052489
28000,0.0324,0.013523,0.002678,0.000431,4.052959
29000,0.0324,0.013523,0.002678,0.000431,4.018406
30000,0.0324,0.013523,0.002678,0.000431,4.071764
31000,0.0324,0.013523,0.002678,0.000431,4.069648
32000,0.0324,0.013523,0.002678,0.000431,4.051902
33000,0.0324,0.013523,0.002678,0.000431,4.031452
34000,0.0324,0.013523,0.002678,0.000431,4.055545
35000,0.0324,0.013523,0.002678,0.000431,4.079991
36000,0.0324,0.013523,0.002678,0.000431,4.050844
37000,0.0324,0.013523,0.002678,0.000431,4.018994
38000,0.0324,0.013523,0.002678,0.000431,4.071529
39000,0.0324,0.013523,0.002678,0.000431,4.026398
40000,0.0324,0.013523,0.002678,0.000431,4.031452
41000,0.0324,0.013523,0.002678,0.000431,4.026398
42000,0.0324,0.013523,0.002678,0.000431,4.049434
43000,0.0324,0.013523,0.002678,0.000431,4.050491
44000,0.0324,0.013523,0.002678,0.000431,4.086102
45000,0.0324,0.013523,0.002678,0.000431,4.068473
46000,0.0324,0.013523,0.002678,0.000431,4.063654
47000,0.0324,0.013523,0.002678,0.000431,4.052019
48000,0.0324,0.013523,0.002678,0.000431,4.011119
49000,0.0324,0.013523,0.002678,0.000431,4.030276
50000,0.0324,0.013523,0.002678,0.000431,4.064477
51000,0.0324,0.013523,0.002678,0.000431,4.037563
52000,0.0324,0.013523,0.002678,0.000431,4.009356
53000,0.0324,0.013523,0.002678,0.000431,4.027808
54000,0.0324,0.013523,0.002678,0.000431,4.052607
55000,0.0324,0.013523,0.002678,0.000431,4.082459
56000,0.0324,0.013523,0.002678,0.000431,4.113839
57000,0.0324,0.013523,0.002678,0.000431,4.093624
58000,0.0324,0.013523,0.002678,0.000431,4.070236
59000,0.0324,0.013523,0.002678,0.000431,4.011707
60000,0.0324,0.013523,0.002678,0.000431,4.111841
61000,0.0324,0.013523,0.002678,0.000431,4.058718
62000,0.0324,0.013523,0.002678,0.000431,4.065887
63000,0.0324,0.013523,0.002678,0.000431,4.061421
64000,0.0324,0.013523,0.002678,0.000431,4.038621
65000,0.0324,0.013523,0.002678,0.000431,4.049669
66000,0.0324,0.013523,0.002678,0.000431,4.100558
67000,0.0324,0.013523,0.002678,0.000431,4.067298
68000,0.0324,0.013523,0.002678,0.000431,4.065887
69000,0.0324,0.013523,0.002678,0.000431,4.046848
70000,0.0324,0.013523,0.002678,0.000431,4.072352
71000,0.0324,0.013523,0.002678,0.000431,4.126885
72000,0.0324,0.013523,0.002678,0.000431,3.975861
73000,0.0324,0.013523,0.002678,0.000431,4.079521
74000,0.0324,0.013523,0.002678,0.000431,4.033802
75000,0.0324,0.013523,0.002678,0.000431,4.037681
76000,0.0324,0.013523,0.002678,0.000431,4.111488
77000,0.0324,0.013523,0.002678,0.000431,4.056133
78000,0.0324,0.013523,0.002678,0.000431,4.062362
79000,0.0324,0.013523,0.002678,0.000431,4.077288
80000,0.0324,0.013523,0.002678,0.000431,4.116190
81000,0.0324,0.013523,0.002678,0.000431,4.073292
82000,0.0324,0.013523,0.002678,0.000431,4.081989
83000,0.0324,0.013523,0.002678,0.000431,4.088335
84000,0.0324,0.013523,0.002678,0.000431,4.065535
85000,0.0324,0.013523,0.002678,0.000431,4.086572
86000,0.0324,0.013523,0.002678,0.000431,4.062949
87000,0.0324,0.013523,0.002678,0.000431,4.074702
88000,0.0324,0.013523,0.002678,0.000431,4.059071
89000,0.0324,0.013523,0.002678,0.000431,4.086807
90000,0.0324,0.013523,0.002678,0.000431,4.003362
91000,0.0324,0.013523,0.002678,0.000431,4.123594
92000,0.0324,0.013523,0.002678,0.000431,4.042969
93000,0.0324,0.013523,0.002678,0.000431,4.093507
94000,0.0324,0.013523,0.002678,0.000431,4.031687
95000,0.0324,0.013523,0.002678,0.000431,4.096915
96000,0.0324,0.013523,0.002678,0.000431,4.072352
97000,0.0324,0.013523,0.002678,0.000431,4.063654
98000,0.0324,0.013523,0.002678,0.000431,4.089276
99000,0.0324,0.013523,0.002678,0.000431,4.097032
100000,0.0324,0.013523,0.002678,0.000431,4.071059
101000,0.0324,0.013523,0.002678,0.000431,4.089158
102000,0.0324,0.013523,0.002678,0.000431,4.025575
103000,0.0324,0.013523,0.002678,0.000431,4.037798
104000,0.0324,0.013523,0.002678,0.000431,4.087278
105000,0.0324,0.013523,0.002678,0.000431,4.030629
106000,0.0324,0.013523,0.002678,0.000431,4.042969
107000,0.0324,0.013523,0.002678,0.000431,3.987379
108000,0.0324,0.013523,0.002678,0.000431,3.979387
109000,0.0324,0.013523,0.002678,0.000431,4.064595
110000,0.0324,0.013523,0.002678,0.000431,4.048846
111000,0.0324,0.013523,0.002678,0.000431,4.017936
112000,0.0324,0.013523,0.002678,0.000431,3.972570
113000,0.0324,0.013523,0.002678,0.000431,3.949652
114000,0.0324,0.013523,0.002678,0.000431,3.930730
115000,0.0324,0.013523,0.002678,0.000431,3.902876
116000,0.0324,0.013523,0.002678,0.000431,3.819313
117000,0.0324,0.013523,0.002678,0.000431,3.710365
118000,0.0324,0.013523,0.002678,0.000431,3.597890
119000,0.0324,0.013523,0.002678,0.000431,3.468962
120000,0.0324,0.013523,0.002678,0.000431,3.325695
121000,0.0324,0.013523,0.002678,0.000431,3.227559
122000,0.0324,0.013523,0.002678,0.000431,3.106740
123000,0.0324,0.013523,0.002678,0.000431,2.982630
124000,0.0324,0.013523,0.002678,0.000431,2.859578
125000,0.0324,0.013523,0.002678,0.000431,2.738289
126000,0.0324,0.013523,0.002678,0.000431,2.635217
127000,0.0324,0.013523,0.002678,0.000431,2.523330
128000,0.0324,0.013523,0.002678,0.000431,2.400278
129000,0.0324,0.013523,0.002678,0.000431,2.323767
130000,0.0324,0.013523,0.002678,0.000431,2.152999
131000,0.0324,0.013523,0.002678,0.000431,2.058624
132000,0.0324,0.013523,0.002678,0.000431,2.005031
133000,0.0324,0.013523,0.002678,0.000431,1.938745
134000,0.0324,0.013523,0.002678,0.000431,1.825330
135000,0.0324,0.013523,0.002678,0.000431,1.809229
136000,0.0324,0.013523,0.002678,0.000431,1.733541
137000,0.0324,0.013523,0.002678,0.000431,1.663494
138000,0.0324,0.013523,0.002678,0.000431,1.598618
139000,0.0324,0.013523,0.002678,0.000431,1.546083
140000,0.0324,0.013523,0.002678,0.000431,1.494018
141000,0.0324,0.013523,0.002678,0.000431,1.458995
142000,0.0324,0.013523,0.002678,0.000431,1.425617
143000,0.0324,0.013523,0.002678,0.000431,1.363209
144000,0.0324,0.013523,0.002678,0.000431,1.339351
145000,0.0324,0.013523,0.002678,0.000431,1.320194
146000,0.0324,0.013523,0.002678,0.000431,1.251558
147000,0.0324,0.013523,0.002678,0.000431,1.202901
148000,0.0324,0.013523,0.002678,0.000431,1.162119
149000,0.0324,0.013523,0.002678,0.000431,1.128976
150000,0.0324,0.013523,0.002678,0.000431,1.082552
151000,0.0324,0.013523,0.002678,0.000431,1.060809
152000,0.0324,0.013523,0.002678,0.000431,1.020497
153000,0.0324,0.013523,0.002678,0.000431,1.000752
154000,0.0324,0.013523,0.002678,0.000431,0.962203
155000,0.0324,0.013523,0.002678,0.000431,0.925769
156000,0.0324,0.013523,0.002678,0.000431,0.909668
157000,0.0324,0.013523,0.002678,0.000431,0.867005
158000,0.0324,0.013523,0.002678,0.000431,0.845380
159000,0.0324,0.013523,0.002678,0.000431,0.823873
160000,0.0324,0.013523,0.002678,0.000431,0.810827
161000,0.0324,0.013523,0.002678,0.000431,0.757704
162000,0.0324,0.013523,0.002678,0.000431,0.745481
163000,0.0324,0.013523,0.002678,0.000431,0.724796
164000,0.0324,0.013523,0.002678,0.000431,0.701643
165000,0.0324,0.013523,0.002678,0.000431,0.664269
166000,0.0324,0.013523,0.002678,0.000431,0.647580
167000,0.0324,0.013523,0.002678,0.000431,0.625250
168000,0.0324,0.013523,0.002678,0.000431,0.602802
169000,0.0324,0.013523,0.002678,0.000431,0.584350
170000,0.0324,0.013523,0.002678,0.000431,0.542510
171000,0.0324,0.013523,0.002678,0.000431,0.546036
172000,0.0324,0.013523,0.002678,0.000431,0.528994
173000,0.0324,0.013523,0.002678,0.000431,0.501140
174000,0.0324,0.013523,0.002678,0.000431,0.483981
175000,0.0324,0.013523,0.002678,0.000431,0.465412
176000,0.0324,0.013523,0.002678,0.000431,0.459535
177000,0.0324,0.013523,0.002678,0.000431,0.437087
178000,0.0324,0.013523,0.002678,0.000431,0.417108
179000,0.0324,0.013523,0.002678,0.000431,0.397128
180000,0.0324,0.013523,0.002678,0.000431,0.381496
181000,0.0324,0.013523,0.002678,0.000431,0.372094
182000,0.0324,0.013523,0.002678,0.000431,0.360224
183000,0.0324,0.013523,0.002678,0.000431,0.350469
184000,0.0324,0.013523,0.002678,0.000431,0.337071
185000,0.0324,0.013523,0.002678,0.000431,0.316151
186000,0.0324,0.013523,0.002678,0.000431,0.307101
187000,0.0324,0.013523,0.002678,0.000431,0.298051
188000,0.0324,0.013523,0.002678,0.000431,0.284066
189000,0.0324,0.013523,0.002678,0.000431,0.281833
190000,0.0324,0.013523,0.002678,0.000431,0.261500
191000,0.0324,0.013523,0.002678,0.000431,0.260560
192000,0.0324,0.013523,0.002678,0.000431,0.244694
193000,0.0324,0.013523,0.002678,0.000431,0.241873
194000,0.0324,0.013523,0.002678,0.000431,0.224831
195000,0.0324,0.013523,0.002678,0.000431,0.220013
196000,0.0324,0.013523,0.002678,0.000431,0.219778
197000,0.0324,0.013523,0.002678,0.000431,0.204382
198000,0.0324,0.013523,0.002678,0.000431,0.209083
199000,0.0324,0.013523,0.002678,0.000431,0.195449
200000,0.0324,0.013523,0.002678,0.000431,0.190866
201000,0.0324,0.013523,0.002678,0.000431,0.187457
202000,0.0324,0.013523,0.002678,0.000431,0.170533
203000,0.0324,0.013523,0.002678,0.000431,0.166067
204000,0.0324,0.013523,0.002678,0.000431,0.163012
205000,0.0324,0.013523,0.002678,0.000431,0.155372
206000,0.0324,0.013523,0.002678,0.000431,0.146793
207000,0.0324,0.013523,0.002678,0.000431,0.146558
208000,0.0324,0.013523,0.002678,0.000431,0.142679
209000,0.0324,0.013523,0.002678,0.000431,0.136333
210000,0.0324,0.013523,0.002678,0.000431,0.128106
211000,0.0324,0.013523,0.002678,0.000431,0.120349
212000,0.0324,0.013523,0.002678,0.000431,0.116588
213000,0.0324,0.013523,0.002678,0.000431,0.117411
214000,0.0324,0.013523,0.002678,0.000431,0.113532
215000,0.0324,0.013523,0.002678,0.000431,0.111887
216000,0.0324,0.013523,0.002678,0.000431,0.107303
217000,0.0324,0.013523,0.002678,0.000431,0.102132
218000,0.0324,0.013523,0.002678,0.000431,0.103190
219000,0.0324,0.013523,0.002678,0.000431,0.092730
220000,0.0324,0.013523,0.002678,0.000431,0.096608
221000,0.0324,0.013523,0.002678,0.000431,0.089909
222000,0.0324,0.013523,0.002678,0.000431,0.086736
223000,0.0324,0.013523,0.002678,0.000431,0.083445
224000,0.0324,0.013523,0.002678,0.000431,0.081212
225000,0.0324,0.013523,0.002678,0.000431,0.083327
226000,0.0324,0.013523,0.002678,0.000431,0.074278
227000,0.0324,0.013523,0.002678,0.000431,0.073690
228000,0.0324,0.013523,0.002678,0.000431,0.071927
229000,0.0324,0.013523,0.002678,0.000431,0.069342
230000,0.0324,0.013523,0.002678,0.000431,0.069812
231000,0.0324,0.013523,0.002678,0.000431,0.068284
232000,0.0324,0.013523,0.002678,0.000431,0.060762
233000,0.0324,0.013523,0.002678,0.000431,0.062760
234000,0.0324,0.013523,0.002678,0.000431,0.056649
235000,0.0324,0.013523,0.002678,0.000431,0.055121
236000,0.0324,0.013523,0.002678,0.000431,0.054298
237000,0.0324,0.013523,0.002678,0.000431,0.055238
238000,0.0324,0.013523,0.002678,0.000431,0.048069
239000,0.0324,0.013523,0.002678,0.000431,0.049009
240000,0.0324,0.013523,0.002678,0.000431,0.045954
241000,0.0324,0.013523,0.002678,0.000431,0.048774
242000,0.0324,0.013523,0.002678,0.000431,0.045366
243000,0.0324,0.013523,0.002678,0.000431,0.047481
244000,0.0324,0.013523,0.002678,0.000431,0.042428
245000,0.0324,0.013523,0.002678,0.000431,0.045248
246000,0.0324,0.013523,0.002678,0.000431,0.041135
247000,0.0324,0.013523,0.002678,0.000431,0.041252
248000,0.0324,0.013523,0.002678,0.000431,0.039842
249000,0.0324,0.013523,0.002678,0.000431,0.039137
250000,0.0324,0.013523,0.002678,0.000431,0.037609
251000,0.0324,0.013523,0.002678,0.000431,0.037374
252000,0.0324,0.013523,0.002678,0.000431,0.035846
253000,0.0324,0.013523,0.002678,0.000431,0.034201
254000,0.0324,0.013523,0.002678,0.000431,0.032673
255000,0.0324,0.013523,0.002678,0.000431,0.033496
256000,0.0324,0.013523,0.002678,0.000431,0.030322
257000,0.0324,0.013523,0.002678,0.000431,0.032085
258000,0.0324,0.013523,0.002678,0.000431,0.030087
259000,0.0324,0.013523,0.002678,0.000431,0.030557
260000,0.0324,0.013523,0.002678,0.000431,0.027854
261000,0.0324,0.013523,0.002678,0.000431,0.027854
262000,0.0324,0.013523,0.002678,0.000431,0.026091
263000,0.0324,0.013523,0.002678,0.000431,0.026561
264000,0.0324,0.013523,0.002678,0.000431,0.025269
265000,0.0324,0.013523,0.002678,0.000431,0.025386
266000,0.0324,0.013523,0.002678,0.000431,0.023036
267000,0.0324,0.013523,0.002678,0.000431,0.023153
268000,0.0324,0.013523,0.002678,0.000431,0.022448
269000,0.0324,0.013523,0.002678,0.000431,0.022095
270000,0.0324,0.013523,0.002678,0.000431,0.023153
271000,0.0324,0.013523,0.002678,0.000431,0.022565
272000,0.0324,0.013523,0.002678,0.000431,0.021390
273000,0.0324,0.013523,0.002678,0.000431,0.019157
274000,0.0324,0.013523,0.002678,0.000431,0.020567
275000,0.0324,0.013523,0.002678,0.000431,0.018452
276000,0.0324,0.013523,0.002678,0.000431,0.018217
277000,0.0324,0.013523,0.002678,0.000431,0.019745
278000,0.0324,0.013523,0.002678,0.000431,0.020685
279000,0.0324,0.013523,0.002678,0.000431,0.014926
280000,0.0324,0.013523,0.002678,0.000431,0.019392
281000,0.0324,0.013523,0.002678,0.000431,0.017747
282000,0.0324,0.013523,0.002678,0.000431,0.017747
283000,0.0324,0.013523,0.002678,0.000431,0.017394
284000,0.0324,0.013523,0.002678,0.000431,0.015984
285000,0.0324,0.013523,0.002678,0.000431,0.017277
286000,0.0324,0.013523,0.002678,0.000431,0.015984
287000,0.0324,0.013523,0.002678,0.000431,0.014809
288000,0.0324,0.013523,0.002678,0.000431,0.014103
289000,0.0324,0.013523,0.002678,0.000431,0.017159
290000,0.0324,0.013523,0.002678,0.000431,0.014809
291000,0.0324,0.013523,0.002678,0.000431,0.015514
292000,0.0324,0.013523,0.002678,0.000431,0.013046
293000,0.0324,0.013523,0.002678,0.000431,0.014103
294000,0.0324,0.013523,0.002678,0.000431,0.015749
295000,0.0324,0.013523,0.002678,0.000431,0.012105
296000,0.0324,0.013523,0.002678,0.000431,0.015631
297000,0.0324,0.013523,0.002678,0.000431,0.013281
298000,0.0324,0.013523,0.002678,0.000431,0.013163
299000,0.0324,0.013523,0.002678,0.000431,0.012576
300000,0.0324,0.013523,0.002678,0.000431,0.011988
301000,0.0324,0.013523,0.002678,0.000431,0.010930
302000,0.0324,0.013523,0.002678,0.000431,0.013163
303000,0.0324,0.013523,0.002678,0.000431,0.012340
304000,0.0324,0.013523,0.002678,0.000431,0.011165
305000,0.0324,0.013523,0.002678,0.000431,0.011518
306000,0.0324,0.013523,0.002678,0.000431,0.010695
307000,0.0324,0.013523,0.002678,0.000431,0.010813
308000,0.0324,0.013523,0.002678,0.000431,0.010578
309000,0.0324,0.013523,0.002678,0.000431,0.011283
310000,0.0324,0.013523,0.002678,0.000431,0.011165
311000,0.0324,0.013523,0.002678,0.000431,0.009285
312000,0.0324,0.013523,0.002678,0.000431,0.010695
313000,0.0324,0.013523,0.002678,0.000431,0.008462
314000,0.0324,0.013523,0.002678,0.000431,0.009872
315000,0.0324,0.013523,0.002678,0.000431,0.008815
316000,0.0324,0.013523,0.002678,0.000431,0.009402
317000,0.0324,0.013523,0.002678,0.000431,0.009755
318000,0.0324,0.013523,0.002678,0.000431,0.009050
319000,0.0324,0.013523,0.002678,0.000431,0.007169
320000,0.0324,0.013523,0.002678,0.000431,0.009637
321000,0.0324,0.013523,0.002678,0.000431,0.008227
322000,0.0324,0.013523,0.002678,0.000431,0.008345
323000,0.0324,0.013523,0.002678,0.000431,0.008227
324000,0.0324,0.013523,0.002678,0.000431,0.007404
325000,0.0324,0.013523,0.002678,0.000431,0.007639
326000,0.0324,0.013523,0.002678,0.000431,0.007757
327000,0.0324,0.013523,0.002678,0.000431,0.008697
328000,0.0324,0.013523,0.002678,0.000431,0.007874
329000,0.0324,0.013523,0.002678,0.000431,0.007874
330000,0.0324,0.013523,0.002678,0.000431,0.007874
331000,0.0324,0.013523,0.002678,0.000431,0.009990
332000,0.0324,0.013523,0.002678,0.000431,0.008109
333000,0.0324,0.013523,0.002678,0.000431,0.007404
334000,0.0324,0.013523,0.002678,0.000431,0.007169
335000,0.0324,0.013523,0.002678,0.000431,0.007639
336000,0.0324,0.013523,0.002678,0.000431,0.006699
337000,0.0324,0.013523,0.002678,0.000431,0.007287
338000,0.0324,0.013523,0.002678,0.000431,0.006934
339000,0.0324,0.013523,0.002678,0.000431,0.007757
340000,0.0324,0.013523,0.002678,0.000431,0.008227
341000,0.0324,0.013523,0.002678,0.000431,0.007169
342000,0.0324,0.013523,0.002678,0.000431,0.007522
343000,0.0324,0.013523,0.002678,0.000431,0.005994
344000,0.0324,0.013523,0.002678,0.000431,0.005406
345000,0.0324,0.013523,0.002678,0.000431,0.007052
346000,0.0324,0.013523,0.002678,0.000431,0.007052
347000,0.0324,0.013523,0.002678,0.000431,0.006817
348000,0.0324,0.013523,0.002678,0.000431,0.005876
349000,0.0324,0.013523,0.002678,0.000431,0.007169
350000,0.0324,0.013523,0.002678,0.000431,0.006464
351000,0.0324,0.013523,0.002678,0.000431,0.006347
352000,0.0324,0.013523,0.002678,0.000431,0.006111
353000,0.0324,0.013523,0.002678,0.000431,0.005524
354000,0.0324,0.013523,0.002678,0.000431,0.006111
355000,0.0324,0.013523,0.002678,0.000431,0.006111
356000,0.0324,0.013523,0.002678,0.000431,0.007052
357000,0.0324,0.013523,0.002678,0.000431,0.006582
358000,0.0324,0.013523,0.002678,0.000431,0.005759
359000,0.0324,0.013523,0.002678,0.000431,0.005876
360000,0.0324,0.013523,0.002678,0.000431,0.005876
361000,0.0324,0.013523,0.002678,0.000431,0.005994
362000,0.0324,0.013523,0.002678,0.000431,0.005759
363000,0.0324,0.013523,0.002678,0.000431,0.005524
364000,0.0324,0.013523,0.002678,0.000431,0.005289
365000,0.0324,0.013523,0.002678,0.000431,0.005994
366000,0.0324,0.013523,0.002678,0.000431,0.005406
367000,0.0324,0.013523,0.002678,0.000431,0.005876
368000,0.0324,0.013523,0.002678,0.000431,0.005759
369000,0.0324,0.013523,0.002678,0.000431,0.005054
370000,0.0324,0.013523,0.002678,0.000431,0.005876
371000,0.0324,0.013523,0.002678,0.000431,0.005171
372000,0.0324,0.013523,0.002678,0.000431,0.006111
373000,0.0324,0.013523,0.002678,0.000431,0.005406
374000,0.0324,0.013523,0.002678,0.000431,0.005759
375000,0.0324,0.013523,0.002678,0.000431,0.005054
376000,0.0324,0.013523,0.002678,0.000431,0.004936
377000,0.0324,0.013523,0.002678,0.000431,0.005641
378000,0.0324,0.013523,0.002678,0.000431,0.004819
379000,0.0324,0.013523,0.002678,0.000431,0.004936
380000,0.0324,0.013523,0.002678,0.000431,0.005171
381000,0.0324,0.013523,0.002678,0.000431,0.003643
382000,0.0324,0.013523,0.002678,0.000431,0.005171
383000,0.0324,0.013523,0.002678,0.000431,0.005289
384000,0.0324,0.013523,0.002678,0.000431,0.004819
385000,0.0324,0.013523,0.002678,0.000431,0.004701
386000,0.0324,0.013523,0.002678,0.000431,0.004701
387000,0.0324,0.013523,0.002678,0.000431,0.004819
388000,0.0324,0.013523,0.002678,0.000431,0.005171
389000,0.0324,0.013523,0.002678,0.000431,0.004584
390000,0.0324,0.013523,0.002678,0.000431,0.004936
391000,0.0324,0.013523,0.002678,0.000431,0.004701
392000,0.0324,0.013523,0.002678,0.000431,0.005054
393000,0.0324,0.013523,0.002678,0.000431,0.004584
394000,0.0324,0.013523,0.002678,0.000431,0.004349
395000,0.0324,0.013523,0.002678,0.000431,0.003878
396000,0.0324,0.013523,0.002678,0.000431,0.004113
397000,0.0324,0.013523,0.002678,0.000431,0.003761
398000,0.0324,0.013523,0.002678,0.000431,0.003996
399000,0.0324,0.013523,0.002678,0.000431,0.004349
400000,0.0324,0.013523,0.002678,0.000431,0.003643
401000,0.0324,0.013523,0.002678,0.000431,0.004819
402000,0.0324,0.013523,0.002678,0.000431,0.002703
403000,0.0324,0.013523,0.002678,0.000431,0.003643
404000,0.0324,0.013523,0.002678,0.000431,0.003291
405000,0.0324,0.013523,0.002678,0.000431,0.003996
406000,0.0324,0.013523,0.002678,0.000431,0.003408
407000,0.0324,0.013523,0.002678,0.000431,0.003761
408000,0.0324,0.013523,0.002678,0.000431,0.004701
409000,0.0324,0.013523,0.002678,0.000431,0.004349
410000,0.0324,0.013523,0.002678,0.000431,0.004231
411000,0.0324,0.013523,0.002678,0.000431,0.003878
412000,0.0324,0.013523,0.002678,0.000431,0.003996
413000,0.0324,0.013523,0.002678,0.000431,0.003173
414000,0.0324,0.013523,0.002678,0.000431,0.004231
415000,0.0324,0.013523,0.002678,0.000431,0.003056
416000,0.0324,0.013523,0.002678,0.000431,0.003526
417000,0.0324,0.013523,0.002678,0.000431,0.003408
418000,0.0324,0.013523,0.002678,0.000431,0.003526
419000,0.0324,0.013523,0.002678,0.000431,0.003173
420000,0.0324,0.013523,0.002678,0.000431,0.003996
421000,0.0324,0.013523,0.002678,0.000431,0.003878
422000,0.0324,0.013523,0.002678,0.000431,0.004113
423000,0.0324,0.013523,0.002678,0.000431,0.003878
424000,0.0324,0.013523,0.002678,0.000431,0.003408
425000,0.0324,0.013523,0.002678,0.000431,0.003761
426000,0.0324,0.013523,0.002678,0.000431,0.002586
427000,0.0324,0.013523,0.002678,0.000431,0.003761
428000,0.0324,0.013523,0.002678,0.000431,0.003643
429000,0.0324,0.013523,0.002678,0.000431,0.003878
430000,0.0324,0.013523,0.002678,0.000431,0.003526
431000,0.0324,0.013523,0.002678,0.000431,0.004113
432000,0.0324,0.013523,0.002678,0.000431,0.002938
433000,0.0324,0.013523,0.002678,0.000431,0.003291
434000,0.0324,0.013523,0.002678,0.000431,0.003408
435000,0.0324,0.013523,0.002678,0.000431,0.003526
436000,0.0324,0.013523,0.002678,0.000431,0.003291
437000,0.0324,0.013523,0.002678,0.000431,0.003761
438000,0.0324,0.013523,0.002678,0.000431,0.003291
439000,0.0324,0.013523,0.002678,0.000431,0.003643
440000,0.0324,0.013523,0.002678,0.000431,0.002938
441000,0.0324,0.013523,0.002678,0.000431,0.003056
442000,0.0324,0.013523,0.002678,0.000431,0.003291
443000,0.0324,0.013523,0.002678,0.000431,0.003526
444000,0.0324,0.013523,0.002678,0.000431,0.003878
445000,0.0324,0.013523,0.002678,0.000431,0.003526
446000,0.0324,0.013523,0.002678,0.000431,0.003408
447000,0.0324,0.013523,0.002678,0.000431,0.003526
448000,0.0324,0.013523,0.002678,0.000431,0.002586
449000,0.0324,0.013523,0.002678,0.000431,0.003526
450000,0.0324,0.013523,0.002678,0.000431,0.003643
451000,0.0324,0.013523,0.002678,0.000431,0.003408
452000,0.0324,0.013523,0.002678,0.000431,0.003761
453000,0.0324,0.013523,0.002678,0.000431,0.003291
454000,0.0324,0.013523,0.002678,0.000431,0.002821
455000,0.0324,0.013523,0.002678,0.000431,0.003173
456000,0.0324,0.013523,0.002678,0.000431,0.002703
457000,0.0324,0.013523,0.002678,0.000431,0.002233
458000,0.0324,0.013523,0.002678,0.000431,0.003173
459000,0.0324,0.013523,0.002678,0.000431,0.003173
460000,0.0324,0.013523,0.002678,0.000431,0.002586
461000,0.0324,0.013523,0.002678,0.000431,0.002468
462000,0.0324,0.013523,0.002678,0.000431,0.003643
463000,0.0324,0.013523,0.002678,0.000431,0.003878
464000,0.0324,0.013523,0.002678,0.000431,0.002703
465000,0.0324,0.013523,0.002678,0.000431,0.003291
466000,0.0324,0.013523,0.002678,0.000431,0.003761
467000,0.0324,0.013523,0.002678,0.000431,0.002468
468000,0.0324,0.013523,0.002678,0.000431,0.002703
469000,0.0324,0.013523,0.002678,0.000431,0.003526
470000,0.0324,0.013523,0.002678,0.000431,0.002468
471000,0.0324,0.013523,0.002678,0.000431,0.003291
472000,0.0324,0.013523,0.002678,0.000431,0.002233
473000,0.0324,0.013523,0.002678,0.000431,0.003408
474000,0.0324,0.013523,0.002678,0.000431,0.002821
475000,0.0324,0.013523,0.002678,0.000431,0.002351
476000,0.0324,0.013523,0.002678,0.000431,0.002351
477000,0.0324,0.013523,0.002678,0.000431,0.002586
478000,0.0324,0.013523,0.002678,0.000431,0.003056
479000,0.0324,0.013523,0.002678,0.000431,0.003056
480000,0.0324,0.013523,0.002678,0.000431,0.003408
481000,0.0324,0.013523,0.002678,0.000431,0.003408
482000,0.0324,0.013523,0.002678,0.000431,0.003291
483000,0.0324,0.013523,0.002678,0.000431,0.002821
484000,0.0324,0.013523,0.002678,0.000431,0.002586
485000,0.0324,0.013523,0.002678,0.000431,0.003173
486000,0.0324,0.013523,0.002678,0.000431,0.003056
487000,0.0324,0.013523,0.002678,0.000431,0.003291
488000,0.0324,0.013523,0.002678,0.000431,0.002938
489000,0.0324,0.013523,0.002678,0.000431,0.003761
490000,0.0324,0.013523,0.002678,0.000431,0.003526
491000,0.0324,0.013523,0.002678,0.000431,0.003526
492000,0.0324,0.013523,0.002678,0.000431,0.002703
493000,0.0324,0.013523,0.002678,0.000431,0.002821
494000,0.0324,0.013523,0.002678,0.000431,0.003291
495000,0.0324,0.013523,0.002678,0.000431,0.003056
496000,0.0324,0.013523,0.002678,0.000431,0.003056
497000,0.0324,0.013523,0.002678,0.000431,0.002703
498000,0.0324,0.013523,0.002678,0.000431,0.003291
499000,0.0324,0.013523,0.002678,0.000431,0.002586
500000,0.0324,0.013523,0.002678,0.000431,0.002938
501000,0.0324,0.013523,0.002678,0.000431,0.003056
502000,0.0324,0.013523,0.002678,0.000431,0.003173
503000,0.0324,0.013523,0.002678,0.000431,0.002116
504000,0.0324,0.013523,0.002678,0.000431,0.003291
505000,0.0324,0.013523,0.002678,0.000431,0.003291
506000,0.0324,0.013523,0.002678,0.000431,0.002938
507000,0.0324,0.013523,0.002678,0.000431,0.003526
508000,0.0324,0.013523,0.002678,0.000431,0.003173
509000,0.0324,0.013523,0.002678,0.000431,0.003056
510000,0.0324,0.013523,0.002678,0.000431,0.003526
511000,0.0324,0.013523,0.002678,0.000431,0.002938
512000,0.0324,0.013523,0.002678,0.000431,0.002468
513000,0.0324,0.013523,0.002678,0.000431,0.002468
514000,0.0324,0.013523,0.002678,0.000431,0.002116
515000,0.0324,0.013523,0.002678,0.000431,0.003291
516000,0.0324,0.013523,0.002678,0.000431,0.001645
517000,0.0324,0.013523,0.002678,0.000431,0.002703
518000,0.0324,0.013523,0.002678,0.000431,0.002468
519000,0.0324,0.013523,0.002678,0.000431,0.002703
520000,0.0324,0.013523,0.002678,0.000431,0.002821
521000,0.0324,0.013523,0.002678,0.000431,0.002703
522000,0.0324,0.013523,0.002678,0.000431,0.002116
523000,0.0324,0.013523,0.002678,0.000431,0.003056
524000,0.0324,0.013523,0.002678,0.000431,0.002586
525000,0.0324,0.013523,0.002678,0.000431,0.002703
526000,0.0324,0.013523,0.002678,0.000431,0.001880
527000,0.0324,0.013523,0.002678,0.000431,0.001880
528000,0.0324,0.013523,0.002678,0.000431,0.001998
529000,0.0324,0.013523,0.002678,0.000431,0.001880
530000,0.0324,0.013523,0.002678,0.000431,0.002116
531000,0.0324,0.013523,0.002678,0.000431,0.001998
532000,0.0324,0.013523,0.002678,0.000431,0.002116
533000,0.0324,0.013523,0.002678,0.000431,0.002468
534000,0.0324,0.013523,0.002678,0.000431,0.001880
535000,0.0324,0.013523,0.002678,0.000431,0.002233
536000,0.0324,0.013523,0.002678,0.000431,0.001645
537000,0.0324,0.013523,0.002678,0.000431,0.001175
538000,0.0324,0.013523,0.002678,0.000431,0.001058
539000,0.0324,0.013523,0.002678,0.000431,0.001645
540000,0.0324,0.013523,0.002678,0.000431,0.001645
541000,0.0324,0.013523,0.002678,0.000431,0.001293
542000,0.0324,0.013523,0.002678,0.000431,0.001880
543000,0.0324,0.013523,0.002678,0.000431,0.001293
544000,0.0324,0.013523,0.002678,0.000431,0.001763
545000,0.0324,0.013523,0.002678,0.000431,0.001645
546000,0.0324,0.013523,0.002678,0.000431,0.001528
547000,0.0324,0.013523,0.002678,0.000431,0.001528
548000,0.0324,0.013523,0.002678,0.000431,0.000823
549000,0.0324,0.013523,0.002678,0.000431,0.001528
550000,0.0324,0.013523,0.002678,0.000431,0.001645
551000,0.0324,0.013523,0.002678,0.000431,0.001293
552000,0.0324,0.013523,0.002678,0.000431,0.001528
553000,0.0324,0.013523,0.002678,0.000431,0.001410
554000,0.0324,0.013523,0.002678,0.000431,0.001645
555000,0.0324,0.013523,0.002678,0.000431,0.001528
556000,0.0324,0.013523,0.002678,0.000431,0.001175
557000,0.0324,0.013523,0.002678,0.000431,0.001293
558000,0.0324,0.013523,0.002678,0.000431,0.001528
559000,0.0324,0.013523,0.002678,0.000431,0.001410
560000,0.0324,0.013523,0.002678,0.000431,0.001410
561000,0.0324,0.013523,0.002678,0.000431,0.001528
562000,0.0324,0.013523,0.002678,0.000431,0.001763
563000,0.0324,0.013523,0.002678,0.000431,0.001058
564000,0.0324,0.013523,0.002678,0.000431,0.001175
565000,0.0324,0.013523,0.002678,0.000431,0.001645
566000,0.0324,0.013523,0.002678,0.000431,0.001410
567000,0.0324,0.013523,0.002678,0.000431,0.001645
568000,0.0324,0.013523,0.002678,0.000431,0.001410
569000,0.0324,0.013523,0.002678,0.000431,0.001410
570000,0.0324,0.013523,0.002678,0.000431,0.001410
571000,0.0324,0.013523,0.002678,0.000431,0.001763
572000,0.0324,0.013523,0.002678,0.000431,0.001528
573000,0.0324,0.013523,0.002678,0.000431,0.001880
574000,0.0324,0.013523,0.002678,0.000431,0.001528
575000,0.0324,0.013523,0.002678,0.000431,0.001645
576000,0.0324,0.013523,0.002678,0.000431,0.001645
577000,0.0324,0.013523,0.002678,0.000431,0.001293
578000,0.0324,0.013523,0.002678,0.000431,0.001880
579000,0.0324,0.013523,0.002678,0.000431,0.001410
580000,0.0324,0.013523,0.002678,0.000431,0.001528
581000,0.0324,0.013523,0.002678,0.000431,0.001528
582000,0.0324,0.013523,0.002678,0.000431,0.001058
583000,0.0324,0.013523,0.002678,0.000431,0.001293
584000,0.0324,0.013523,0.002678,0.000431,0.001645
585000,0.0324,0.013523,0.002678,0.000431,0.001528
586000,0.0324,0.013523,0.002678,0.000431,0.001645
587000,0.0324,0.013523,0.002678,0.000431,0.001528
588000,0.0324,0.013523,0.002678,0.000431,0.001410
589000,0.0324,0.013523,0.002678,0.000431,0.001175
590000,0.0324,0.013523,0.002678,0.000431,0.001528
591000,0.0324,0.013523,0.002678,0.000431,0.001293
592000,0.0324,0.013523,0.002678,0.000431,0.001058
593000,0.0324,0.013523,0.002678,0.000431,0.001293
594000,0.0324,0.013523,0.002678,0.000431,0.001410
595000,0.0324,0.013523,0.002678,0.000431,0.001763
596000,0.0324,0.013523,0.002678,0.000431,0.000940
597000,0.0324,0.013523,0.002678,0.000431,0.001293
598000,0.0324,0.013523,0.002678,0.000431,0.001293
599000,0.0324,0.013523,0.002678,0.000431,0.001528
600000,0.0324,0.013523,0.002678,0.000431,0.001528
601000,0.0324,0.013523,0.002678,0.000431,0.001293
602000,0.0324,0.013523,0.002678,0.000431,0.001880
603000,0.0324,0.013523,0.002678,0.000431,0.001293
604000,0.0324,0.013523,0.002678,0.000431,0.001175
605000,0.0324,0.013523,0.002678,0.000431,0.001645
606000,0.0324,0.013523,0.002678,0.000431,0.001175
607000,0.0324,0.013523,0.002678,0.000431,0.001175
608000,0.0324,0.013523,0.002678,0.000431,0.000940
609000,0.0324,0.013523,0.002678,0.000431,0.001763
610000,0.0324,0.013523,0.002678,0.000431,0.001410
611000,0.0324,0.013523,0.002678,0.000431,0.001763
612000,0.0324,0.013523,0.002678,0.000431,0.001293
613000,0.0324,0.013523,0.002678,0.000431,0.001528
614000,0.0324,0.013523,0.002678,0.000431,0.001410
615000,0.0324,0.013523,0.002678,0.000431,0.001645
616000,0.0324,0.013523,0.002678,0.000431,0.001175
617000,0.0324,0.013523,0.002678,0.000431,0.001293
618000,0.0324,0.013523,0.002678,0.000431,0.001528
619000,0.0324,0.013523,0.002678,0.000431,0.001293
620000,0.0324,0.013523,0.002678,0.000431,0.001763
621000,0.0324,0.013523,0.002678,0.000431,0.001410
622000,0.0324,0.013523,0.002678,0.000431,0.001763
623000,0.0324,0.013523,0.002678,0.000431,0.001410
624000,0.0324,0.013523,0.002678,0.000431,0.001293
625000,0.0324,0.013523,0.002678,0.000431,0.001528
626000,0.0324,0.013523,0.002678,0.000431,0.001645
627000,0.0324,0.013523,0.002678,0.000431,0.001528
628000,0.0324,0.013523,0.002678,0.000431,0.001293
629000,0.0324,0.013523,0.002678,0.000431,0.001528
630000,0.0324,0.013523,0.002678,0.000431,0.001645
631000,0.0324,0.013523,0.002678,0.000431,0.001528
632000,0.0324,0.013523,0.002678,0.000431,0.001410
633000,0.0324,0.013523,0.002678,0.000431,0.001058
634000,0.0324,0.013523,0.002678,0.000431,0.001410
635000,0.0324,0.013523,0.002678,0.000431,0.001528
636000,0.0324,0.013523,0.002678,0.000431,0.001175
637000,0.0324,0.013523,0.002678,0.000431,0.001410
638000,0.0324,0.013523,0.002678,0.000431,0.001645
639000,0.0324,0.013523,0.002678,0.000431,0.001410
640000,0.0324,0.013523,0.002678,0.000431,0.001880
641000,0.0324,0.013523,0.002678,0.000431,0.001175
642000,0.0324,0.013523,0.002678,0.000431,0.001645
643000,0.0324,0.013523,0.002678,0.000431,0.001293
644000,0.0324,0.013523,0.002678,0.000431,0.001293
645000,0.0324,0.013523,0.002678,0.000431,0.001645
646000,0.0324,0.013523,0.002678,0.000431,0.001293
647000,0.0324,0.013523,0.002678,0.000431,0.001763
648000,0.0324,0.013523,0.002678,0.000431,0.001763
649000,0.0324,0.013523,0.002678,0.000431,0.001410
650000,0.0324,0.013523,0.002678,0.000431,0.001528
651000,0.0324,0.013523,0.002678,0.000431,0.001410
652000,0.0324,0.013523,0.002678,0.000431,0.001528
653000,0.0324,0.013523,0.002678,0.000431,0.001410
654000,0.0324,0.013523,0.002678,0.000431,0.001528
655000,0.0324,0.013523,0.002678,0.000431,0.001528
656000,0.0324,0.013523,0.002678,0.000431,0.001880
657000,0.0324,0.013523,0.002678,0.000431,0.001528
658000,0.0324,0.013523,0.002678,0.000431,0.001410
659000,0.0324,0.013523,0.002678,0.000431,0.001645
660000,0.0324,0.013523,0.002678,0.000431,0.001645
661000,0.0324,0.013523,0.002678,0.000431,0.001410
662000,0.0324,0.013523,0.002678,0.000431,0.001645
663000,0.0324,0.013523,0.002678,0.000431,0.001528
664000,0.0324,0.013523,0.002678,0.000431,0.001410
665000,0.0324,0.013523,0.002678,0.000431,0.001645
666000,0.0324,0.013523,0.002678,0.000431,0.001528
667000,0.0324,0.013523,0.002678,0.000431,0.001293
668000,0.0324,0.013523,0.002678,0.000431,0.001528
669000,0.0324,0.013523,0.002678,0.000431,0.001410
670000,0.0324,0.013523,0.002678,0.000431,0.001645
671000,0.0324,0.013523,0.002678,0.000431,0.001175
672000,0.0324,0.013523,0.002678,0.000431,0.001645
673000,0.0324,0.013523,0.002678,0.000431,0.001410
674000,0.0324,0.013523,0.002678,0.000431,0.001645
675000,0.0324,0.013523,0.002678,0.000431,0.001528
676000,0.0324,0.013523,0.002678,0.000431,0.001058
677000,0.0324,0.013523,0.002678,0.000431,0.001410
678000,0.0324,0.013523,0.002678,0.000431,0.001293
679000,0.0324,0.013523,0.002678,0.000431,0.001880
680000,0.0324,0.013523,0.002678,0.000431,0.001410
681000,0.0324,0.013523,0.002678,0.000431,0.001528
682000,0.0324,0.013523,0.002678,0.000431,0.001998
683000,0.0324,0.013523,0.002678,0.000431,0.001528
684000,0.0324,0.013523,0.002678,0.000431,0.001528
685000,0.0324,0.013523,0.002678,0.000431,0.001763
686000,0.0324,0.013523,0.002678,0.000431,0.001293
687000,0.0324,0.013523,0.002678,0.000431,0.001645
688000,0.0324,0.013523,0.002678,0.000431,0.001528
689000,0.0324,0.013523,0.002678,0.000431,0.000940
690000,0.0324,0.013523,0.002678,0.000431,0.001763
691000,0.0324,0.013523,0.002678,0.000431,0.001293
692000,0.0324,0.013523,0.002678,0.000431,0.001763
693000,0.0324,0.013523,0.002678,0.000431,0.001763
694000,0.0324,0.013523,0.002678,0.000431,0.001645
695000,0.0324,0.013523,0.002678,0.000431,0.001175
696000,0.0324,0.013523,0.002678,0.000431,0.001410
697000,0.0324,0.013523,0.002678,0.000431,0.001410
698000,0.0324,0.013523,0.002678,0.000431,0.001528
699000,0.0324,0.013523,0.002678,0.000431,0.000705
700000,0.0324,0.013523,0.002678,0.000431,0.001410
701000,0.0324,0.013523,0.002678,0.000431,0.001293
702000,0.0324,0.013523,0.002678,0.000431,0.001175
703000,0.0324,0.013523,0.002678,0.000431,0.001410
704000,0.0324,0.013523,0.002678,0.000431,0.000823
705000,0.0324,0.013523,0.002678,0.000431,0.001058
706000,0.0324,0.013523,0.002678,0.000431,0.001410
707000,0.0324,0.013523,0.002678,0.000431,0.000940
708000,0.0324,0.013523,0.002678,0.000431,0.001058
709000,0.0324,0.013523,0.002678,0.000431,0.001645
710000,0.0324,0.013523,0.002678,0.000431,0.001528
711000,0.0324,0.013523,0.002678,0.000431,0.001410
712000,0.0324,0.013523,0.002678,0.000431,0.001293
713000,0.0324,0.013523,0.002678,0.000431,0.001645
714000,0.0324,0.013523,0.002678,0.000431,0.001528
715000,0.0324,0.013523,0.002678,0.000431,0.001293
716000,0.0324,0.013523,0.002678,0.000431,0.001175
717000,0.0324,0.013523,0.002678,0.000431,0.001293
718000,0.0324,0.013523,0.002678,0.000431,0.000705
719000,0.0324,0.013523,0.002678,0.000431,0.001293
720000,0.0324,0.013523,0.002678,0.000431,0.001293
721000,0.0324,0.013523,0.002678,0.000431,0.001528
722000,0.0324,0.013523,0.002678,0.000431,0.001293
723000,0.0324,0.013523,0.002678,0.000431,0.001645
724000,0.0324,0.013523,0.002678,0.000431,0.001645
725000,0.0324,0.013523,0.002678,0.000431,0.001410
726000,0.0324,0.013523,0.002678,0.000431,0.001410
727000,0.0324,0.013523,0.002678,0.000431,0.001175
728000,0.0324,0.013523,0.002678,0.000431,0.001293
729000,0.0324,0.013523,0.002678,0.000431,0.001175
730000,0.0324,0.013523,0.002678,0.000431,0.001293
731000,0.0324,0.013523,0.002678,0.000431,0.001763
732000,0.0324,0.013523,0.002678,0.000431,0.001175
733000,0.0324,0.013523,0.002678,0.000431,0.001528
734000,0.0324,0.013523,0.002678,0.000431,0.001528
735000,0.0324,0.013523,0.002678,0.000431,0.001998
736000,0.0324,0.013523,0.002678,0.000431,0.001528
737000,0.0324,0.013523,0.002678,0.000431,0.001058
738000,0.0324,0.013523,0.002678,0.000431,0.001528
739000,0.0324,0.013523,0.002678,0.000431,0.001528
740000,0.0324,0.013523,0.002678,0.000431,0.001410
741000,0.0324,0.013523,0.002678,0.000431,0.001998
742000,0.0324,0.013523,0.002678,0.000431,0.001645
743000,0.0324,0.013523,0.002678,0.000431,0.001293
744000,0.0324,0.013523,0.002678,0.000431,0.001528
745000,0.0324,0.013523,0.002678,0.000431,0.001175
746000,0.0324,0.013523,0.002678,0.000431,0.001645
747000,0.0324,0.013523,0.002678,0.000431,0.001410
748000,0.0324,0.013523,0.002678,0.000431,0.001410
749000,0.0324,0.013523,0.002678,0.000431,0.001528
750000,0.0324,0.013523,0.002678,0.000431,0.000823
751000,0.0324,0.013523,0.002678,0.000431,0.001293
752000,0.0324,0.013523,0.002678,0.000431,0.001293
753000,0.0324,0.013523,0.002678,0.000431,0.001410
754000,0.0324,0.013523,0.002678,0.000431,0.001293
755000,0.0324,0.013523,0.002678,0.000431,0.001528
756000,0.0324,0.013523,0.002678,0.000431,0.001175
757000,0.0324,0.013523,0.002678,0.000431,0.001763
758000,0.0324,0.013523,0.002678,0.000431,0.001410
759000,0.0324,0.013523,0.002678,0.000431,0.001175
760000,0.0324,0.013523,0.002678,0.000431,0.001410
761000,0.0324,0.013523,0.002678,0.000431,0.001293
762000,0.0324,0.013523,0.002678,0.000431,0.001410
763000,0.0324,0.013523,0.002678,0.000431,0.001058
764000,0.0324,0.013523,0.002678,0.000431,0.001410
765000,0.0324,0.013523,0.002678,0.000431,0.001293
766000,0.0324,0.013523,0.002678,0.000431,0.001528
767000,0.0324,0.013523,0.002678,0.000431,0.001645
768000,0.0324,0.013523,0.002678,0.000431,0.001410
769000,0.0324,0.013523,0.002678,0.000431,0.001528
770000,0.0324,0.013523,0.002678,0.000431,0.001645
771000,0.0324,0.013523,0.002678,0.000431,0.001293
772000,0.0324,0.013523,0.002678,0.000431,0.001058
773000,0.0324,0.013523,0.002678,0.000431,0.001058
774000,0.0324,0.013523,0.002678,0.000431,0.001528
775000,0.0324,0.013523,0.002678,0.000431,0.001645
776000,0.0324,0.013523,0.002678,0.000431,0.001410
777000,0.0324,0.013523,0.002678,0.000431,0.001528
778000,0.0324,0.013523,0.002678,0.000431,0.001528
779000,0.0324,0.013523,0.002678,0.000431,0.001410
780000,0.0324,0.013523,0.002678,0.000431,0.001293
781000,0.0324,0.013523,0.002678,0.000431,0.001175
782000,0.0324,0.013523,0.002678,0.000431,0.001293
783000,0.0324,0.013523,0.002678,0.000431,0.001293
784000,0.0324,0.013523,0.002678,0.000431,0.001763
785000,0.0324,0.013523,0.002678,0.000431,0.001528
786000,0.0324,0.013523,0.002678,0.000431,0.001528
787000,0.0324,0.013523,0.002678,0.000431,0.001175
788000,0.0324,0.013523,0.002678,0.000431,0.001175
789000,0.0324,0.013523,0.002678,0.000431,0.001410
790000,0.0324,0.013523,0.002678,0.000431,0.001763
791000,0.0324,0.013523,0.002678,0.000431,0.001998
792000,0.0324,0.013523,0.002678,0.000431,0.001293
793000,0.0324,0.013523,0.002678,0.000431,0.000940
794000,0.0324,0.013523,0.002678,0.000431,0.001645
795000,0.0324,0.013523,0.002678,0.000431,0.001645
796000,0.0324,0.013523,0.002678,0.000431,0.001175
797000,0.0324,0.013523,0.002678,0.000431,0.001293
798000,0.0324,0.013523,0.002678,0.000431,0.001880
799000,0.0324,0.013523,0.002678,0.000431,0.001175
800000,0.0324,0.013523,0.002678,0.000431,0.001293
801000,0.0324,0.013523,0.002678,0.000431,0.001880
802000,0.0324,0.013523,0.002678,0.000431,0.001763
803000,0.0324,0.013523,0.002678,0.000431,0.001410
804000,0.0324,0.013523,0.002678,0.000431,0.001175
805000,0.0324,0.013523,0.002678,0.000431,0.001528
806000,0.0324,0.013523,0.002678,0.000431,0.001175
807000,0.0324,0.013523,0.002678,0.000431,0.001528
808000,0.0324,0.013523,0.002678,0.000431,0.001763
809000,0.0324,0.013523,0.002678,0.000431,0.001410
810000,0.0324,0.013523,0.002678,0.000431,0.001645
811000,0.0324,0.013523,0.002678,0.000431,0.001293
812000,0.0324,0.013523,0.002678,0.000431,0.001293
813000,0.0324,0.013523,0.002678,0.000431,0.001410
814000,0.0324,0.013523,0.002678,0.000431,0.001645
815000,0.0324,0.013523,0.002678,0.000431,0.001410
816000,0.0324,0.013523,0.002678,0.000431,0.001763
817000,0.0324,0.013523,0.002678,0.000431,0.001528
818000,0.0324,0.013523,0.002678,0.000431,0.001528
819000,0.0324,0.013523,0.002678,0.000431,0.001175
820000,0.0324,0.013523,0.002678,0.000431,0.001645
821000,0.0324,0.013523,0.002678,0.000431,0.001528
822000,0.0324,0.013523,0.002678,0.000431,0.001645
823000,0.0324,0.013523,0.002678,0.000431,0.001058
824000,0.0324,0.013523,0.002678,0.000431,0.001528
825000,0.0324,0.013523,0.002678,0.000431,0.001528
826000,0.0324,0.013523,0.002678,0.000431,0.001175
827000,0.0324,0.013523,0.002678,0.000431,0.001410
828000,0.0324,0.013523,0.002678,0.000431,0.000940
829000,0.0324,0.013523,0.002678,0.000431,0.001880
830000,0.0324,0.013523,0.002678,0.000431,0.001058
831000,0.0324,0.013523,0.002678,0.000431,0.001645
832000,0.0324,0.013523,0.002678,0.000431,0.001058
833000,0.0324,0.013523,0.002678,0.000431,0.001528
834000,0.0324,0.013523,0.002678,0.000431,0.001645
835000,0.0324,0.013523,0.002678,0.000431,0.001293
836000,0.0324,0.013523,0.002678,0.000431,0.001175
837000,0.0324,0.013523,0.002678,0.000431,0.001058
838000,0.0324,0.013523,0.002678,0.000431,0.000940
839000,0.0324,0.013523,0.002678,0.000431,0.001058
840000,0.0324,0.013523,0.002678,0.000431,0.001175
841000,0.0324,0.013523,0.002678,0.000431,0.000940
842000,0.0324,0.013523,0.002678,0.000431,0.001293
843000,0.0324,0.013523,0.002678,0.000431,0.001293
844000,0.0324,0.013523,0.002678,0.000431,0.000705
845000,0.0324,0.013523,0.002678,0.000431,0.000823
846000,0.0324,0.013523,0.002678,0.000431,0.001528
847000,0.0324,0.013523,0.002678,0.000431,0.000823
848000,0.0324,0.013523,0.002678,0.000431,0.001293
849000,0.0324,0.013523,0.002678,0.000431,0.000940
850000,0.0324,0.013523,0.002678,0.000431,0.001058
851000,0.0324,0.013523,0.002678,0.000431,0.001645
852000,0.0324,0.013523,0.002678,0.000431,0.001175
853000,0.0324,0.013523,0.002678,0.000431,0.001763
854000,0.0324,0.013523,0.002678,0.000431,0.001528
855000,0.0324,0.013523,0.002678,0.000431,0.001293
856000,0.0324,0.013523,0.002678,0.000431,0.001528
857000,0.0324,0.013523,0.002678,0.000431,0.001645
858000,0.0324,0.013523,0.002678,0.000431,0.001410
859000,0.0324,0.013523,0.002678,0.000431,0.001528
860000,0.0324,0.013523,0.002678,0.000431,0.001528
861000,0.0324,0.013523,0.002678,0.000431,0.001528
862000,0.0324,0.013523,0.002678,0.000431,0.001528
863000,0.0324,0.013523,0.002678,0.000431,0.001058
864000,0.0324,0.013523,0.002678,0.000431,0.001293
865000,0.0324,0.013523,0.002678,0.000431,0.001763
866000,0.0324,0.013523,0.002678,0.000431,0.001293
867000,0.0324,0.013523,0.002678,0.000431,0.001175
868000,0.0324,0.013523,0.002678,0.000431,0.001763
869000,0.0324,0.013523,0.002678,0.000431,0.000940
870000,0.0324,0.013523,0.002678,0.000431,0.001410
871000,0.0324,0.013523,0.002678,0.000431,0.000940
872000,0.0324,0.013523,0.002678,0.000431,0.001175
873000,0.0324,0.013523,0.002678,0.000431,0.001410
874000,0.0324,0.013523,0.002678,0.000431,0.001293
875000,0.0324,0.013523,0.002678,0.000431,0.001410
876000,0.0324,0.013523,0.002678,0.000431,0.000940
877000,0.0324,0.013523,0.002678,0.000431,0.001528
878000,0.0324,0.013523,0.002678,0.000431,0.001410
879000,0.0324,0.013523,0.002678,0.000431,0.001410
880000,0.0324,0.013523,0.002678,0.000431,0.001410
881000,0.0324,0.013523,0.002678,0.000431,0.001293
882000,0.0324,0.013523,0.002678,0.000431,0.001410
883000,0.0324,0.013523,0.002678,0.000431,0.001175
884000,0.0324,0.013523,0.002678,0.000431,0.001763
885000,0.0324,0.013523,0.002678,0.000431,0.001410
886000,0.0324,0.013523,0.002678,0.000431,0.001410
887000,0.0324,0.013523,0.002678,0.000431,0.000940
888000,0.0324,0.013523,0.002678,0.000431,0.001528
889000,0.0324,0.013523,0.002678,0.000431,0.001645
890000,0.0324,0.013523,0.002678,0.000431,0.001293
891000,0.0324,0.013523,0.002678,0.000431,0.001645
892000,0.0324,0.013523,0.002678,0.000431,0.001293
893000,0.0324,0.013523,0.002678,0.000431,0.001410
894000,0.0324,0.013523,0.002678,0.000431,0.001410
895000,0.0324,0.013523,0.002678,0.000431,0.001293
896000,0.0324,0.013523,0.002678,0.000431,0.001645
897000,0.0324,0.013523,0.002678,0.000431,0.001410
898000,0.0324,0.013523,0.002678,0.000431,0.001528
899000,0.0324,0.013523,0.002678,0.000431,0.001175
900000,0.0324,0.013523,0.002678,0.000431,0.001293
901000,0.0324,0.013523,0.002678,0.000431,0.001528
902000,0.0324,0.013523,0.002678,0.000431,0.001410
903000,0.0324,0.013523,0.002678,0.000431,0.001528
904000,0.0324,0.013523,0.002678,0.000431,0.001410
905000,0.0324,0.013523,0.002678,0.000431,0.001528
906000,0.0324,0.013523,0.002678,0.000431,0.001528
907000,0.0324,0.013523,0.002678,0.000431,0.001528
908000,0.0324,0.013523,0.002678,0.000431,0.000705
909000,0.0324,0.013523,0.002678,0.000431,0.001410
910000,0.0324,0.013523,0.002678,0.000431,0.001410
911000,0.0324,0.013523,0.002678,0.000431,0.001293
912000,0.0324,0.013523,0.002678,0.000431,0.001880
913000,0.0324,0.013523,0.002678,0.000431,0.000940
914000,0.0324,0.013523,0.002678,0.000431,0.001058
915000,0.0324,0.013523,0.002678,0.000431,0.001175
916000,0.0324,0.013523,0.002678,0.000431,0.001645
917000,0.0324,0.013523,0.002678,0.000431,0.001410
918000,0.0324,0.013523,0.002678,0.000431,0.001058
919000,0.0324,0.013523,0.002678,0.000431,0.001645
920000,0.0324,0.013523,0.002678,0.000431,0.001763
921000,0.0324,0.013523,0.002678,0.000431,0.000940
922000,0.0324,0.013523,0.002678,0.000431,0.001293
923000,0.0324,0.013523,0.002678,0.000431,0.001293
924000,0.0324,0.013523,0.002678,0.000431,0.001645
925000,0.0324,0.013523,0.002678,0.000431,0.001410
926000,0.0324,0.013523,0.002678,0.000431,0.001410
927000,0.0324,0.013523,0.002678,0.000431,0.001293
928000,0.0324,0.013523,0.002678,0.000431,0.001175
929000,0.0324,0.013523,0.002678,0.000431,0.001528
930000,0.0324,0.013523,0.002678,0.000431,0.001410
931000,0.0324,0.013523,0.002678,0.000431,0.001528
932000,0.0324,0.013523,0.002678,0.000431,0.001293
933000,0.0324,0.013523,0.002678,0.000431,0.001645
934000,0.0324,0.013523,0.002678,0.000431,0.001293
935000,0.0324,0.013523,0.002678,0.000431,0.001528
936000,0.0324,0.013523,0.002678,0.000431,0.001763
937000,0.0324,0.013523,0.002678,0.000431,0.001410
938000,0.0324,0.013523,0.002678,0.000431,0.001293
939000,0.0324,0.013523,0.002678,0.000431,0.001410
940000,0.0324,0.013523,0.002678,0.000431,0.001528
941000,0.0324,0.013523,0.002678,0.000431,0.001175
942000,0.0324,0.013523,0.002678,0.000431,0.001528
943000,0.0324,0.013523,0.002678,0.000431,0.001410
944000,0.0324,0.013523,0.002678,0.000431,0.001528
945000,0.0324,0.013523,0.002678,0.000431,0.001645
946000,0.0324,0.013523,0.002678,0.000431,0.001410
947000,0.0324,0.013523,0.002678,0.000431,0.001293
948000,0.0324,0.013523,0.002678,0.000431,0.001528
949000,0.0324,0.013523,0.002678,0.000431,0.001058
950000,0.0324,0.013523,0.002678,0.000431,0.001763
951000,0.0324,0.013523,0.002678,0.000431,0.001528
952000,0.0324,0.013523,0.002678,0.000431,0.001763
953000,0.0324,0.013523,0.002678,0.000431,0.001410
954000,0.0324,0.013523,0.002678,0.000431,0.001528
955000,0.0324,0.013523,0.002678,0.000431,0.001763
956000,0.0324,0.013523,0.002678,0.000431,0.001293
957000,0.0324,0.013523,0.002678,0.000431,0.001528
958000,0.0324,0.013523,0.002678,0.000431,0.001410
959000,0.0324,0.013523,0.002678,0.000431,0.001410
960000,0.0324,0.013523,0.002678,0.000431,0.001410
961000,0.0324,0.013523,0.002678,0.000431,0.001293
962000,0.0324,0.013523,0.002678,0.000431,0.001528
963000,0.0324,0.013523,0.002678,0.000431,0.001410
964000,0.0324,0.013523,0.002678,0.000431,0.001293
965000,0.0324,0.013523,0.002678,0.000431,0.001410
966000,0.0324,0.013523,0.002678,0.000431,0.001763
967000,0.0324,0.013523,0.002678,0.000431,0.001410
968000,0.0324,0.013523,0.002678,0.000431,0.001293
969000,0.0324,0.013523,0.002678,0.000431,0.001528
970000,0.0324,0.013523,0.002678,0.000431,0.001410
971000,0.0324,0.013523,0.002678,0.000431,0.001528
972000,0.0324,0.013523,0.002678,0.000431,0.001293
973000,0.0324,0.013523,0.002678,0.000431,0.001645
974000,0.0324,0.013523,0.002678,0.000431,0.001293
975000,0.0324,0.013523,0.002678,0.000431,0.001293
976000,0.0324,0.013523,0.002678,0.000431,0.001528
977000,0.0324,0.013523,0.002678,0.000431,0.000940
978000,0.0324,0.013523,0.002678,0.000431,0.001528
979000,0.0324,0.013523,0.002678,0.000431,0.001528
980000,0.0324,0.013523,0.002678,0.000431,0.001645
981000,0.0324,0.013523,0.002678,0.000431,0.001293
982000,0.0324,0.013523,0.002678,0.000431,0.001293
983000,0.0324,0.013523,0.002678,0.000431,0.001058
984000,0.0324,0.013523,0.002678,0.000431,0.001410
985000,0.0324,0.013523,0.002678,0.000431,0.001293
986000,0.0324,0.013523,0.002678,0.000431,0.000940
987000,0.0324,0.013523,0.002678,0.000431,0.001293
988000,0.0324,0.013523,0.002678,0.000431,0.000940
989000,0.0324,0.013523,0.002678,0.000431,0.001293
990000,0.0324,0.013523,0.002678,0.000431,0.001763
991000,0.0324,0.013523,0.002678,0.000431,0.001528
992000,0.0324,0.013523,0.002678,0.000431,0.001293
993000,0.0324,0.013523,0.002678,0.000431,0.001293
994000,0.0324,0.013523,0.002678,0.000431,0.001410
995000,0.0324,0.013523,0.002678,0.000431,0.001058
996000,0.0324,0.013523,0.002678,0.000431,0.001645
997000,0.0324,0.013523,0.002678,0.000431,0.001528
998000,0.0324,0.013523,0.002678,0.000431,0.001528
999000,0.0324,0.013523,0.002678,0.000431,0.001880
