Cycle,Area(mm^2),PeakDynamic(W),SubthresholdLeakage(W),GateLeakage(W),RunTimeDynamic(W)
4000000,0.0324,0.013523,0.002678,0.000431,3.259174
4001000,0.0324,0.013523,0.002678,0.000431,3.179490
4002000,0.0324,0.013523,0.002678,0.000431,3.183016
4003000,0.0324,0.013523,0.002678,0.000431,3.243660
4004000,0.0324,0.013523,0.002678,0.000431,3.185836
4005000,0.0324,0.013523,0.002678,0.000431,3.438875
4006000,0.0324,0.013523,0.002678,0.000431,3.241780
4007000,0.0324,0.013523,0.002678,0.000431,3.326870
4008000,0.0324,0.013523,0.002678,0.000431,3.356605
4009000,0.0324,0.013523,0.002678,0.000431,3.396447
4010000,0.0324,0.013523,0.002678,0.000431,3.177962
4011000,0.0324,0.013523,0.002678,0.000431,3.331454
4012000,0.0324,0.013523,0.002678,0.000431,3.277861
4013000,0.0324,0.013523,0.002678,0.000431,3.281504
4014000,0.0324,0.013523,0.002678,0.000431,3.229439
4015000,0.0324,0.013523,0.002678,0.000431,3.283150
4016000,0.0324,0.013523,0.002678,0.000431,3.316998
4017000,0.0324,0.013523,0.002678,0.000431,3.440402
4018000,0.0324,0.013523,0.002678,0.000431,3.383989
4019000,0.0324,0.013523,0.002678,0.000431,3.357663
4020000,0.0324,0.013523,0.002678,0.000431,3.342737
4021000,0.0324,0.013523,0.002678,0.000431,3.281387
4022000,0.0324,0.013523,0.002678,0.000431,3.281034
4023000,0.0324,0.013523,0.002678,0.000431,3.279859
4024000,0.0324,0.013523,0.002678,0.000431,3.362599
4025000,0.0324,0.013523,0.002678,0.000431,3.370356
4026000,0.0324,0.013523,0.002678,0.000431,3.367653
4027000,0.0324,0.013523,0.002678,0.000431,3.294315
4028000,0.0324,0.013523,0.002678,0.000431,3.418542
4029000,0.0324,0.013523,0.002678,0.000431,3.323109
4030000,0.0324,0.013523,0.002678,0.000431,3.196179
4031000,0.0324,0.013523,0.002678,0.000431,3.186189
4032000,0.0324,0.013523,0.002678,0.000431,3.151283
4033000,0.0324,0.013523,0.002678,0.000431,3.051267
4034000,0.0324,0.013523,0.002678,0.000431,3.037163
4035000,0.0324,0.013523,0.002678,0.000431,3.162096
4036000,0.0324,0.013523,0.002678,0.000431,3.309476
4037000,0.0324,0.013523,0.002678,0.000431,3.095340
4038000,0.0324,0.013523,0.002678,0.000431,3.057848
4039000,0.0324,0.013523,0.002678,0.000431,3.021885
4040000,0.0324,0.013523,0.002678,0.000431,2.970525
4041000,0.0324,0.013523,0.002678,0.000431,2.817621
4042000,0.0324,0.013523,0.002678,0.000431,3.023060
4043000,0.0324,0.013523,0.002678,0.000431,3.010014
4044000,0.0324,0.013523,0.002678,0.000431,3.070306
4045000,0.0324,0.013523,0.002678,0.000431,2.948900
4046000,0.0324,0.013523,0.002678,0.000431,2.919870
4047000,0.0324,0.013523,0.002678,0.000431,3.064312
4048000,0.0324,0.013523,0.002678,0.000431,3.029877
4049000,0.0324,0.013523,0.002678,0.000431,2.999554
4050000,0.0324,0.013523,0.002678,0.000431,2.910350
4051000,0.0324,0.013523,0.002678,0.000431,2.902006
4052000,0.0324,0.013523,0.002678,0.000431,3.048681
4053000,0.0324,0.013523,0.002678,0.000431,3.040454
4054000,0.0324,0.013523,0.002678,0.000431,2.908117
4055000,0.0324,0.013523,0.002678,0.000431,3.089933
4056000,0.0324,0.013523,0.002678,0.000431,2.904004
4057000,0.0324,0.013523,0.002678,0.000431,2.758621
4058000,0.0324,0.013523,0.002678,0.000431,2.972640
4059000,0.0324,0.013523,0.002678,0.000431,3.040572
4060000,0.0324,0.013523,0.002678,0.000431,3.256001
4061000,0.0324,0.013523,0.002678,0.000431,3.277273
4062000,0.0324,0.013523,0.002678,0.000431,3.227676
4063000,0.0324,0.013523,0.002678,0.000431,3.341679
4064000,0.0324,0.013523,0.002678,0.000431,3.138825
4065000,0.0324,0.013523,0.002678,0.000431,3.085467
4066000,0.0324,0.013523,0.002678,0.000431,3.187599
4067000,0.0324,0.013523,0.002678,0.000431,3.143996
4068000,0.0324,0.013523,0.002678,0.000431,3.188540
4069000,0.0324,0.013523,0.002678,0.000431,3.182193
4070000,0.0324,0.013523,0.002678,0.000431,3.081589
4071000,0.0324,0.013523,0.002678,0.000431,2.887197
4072000,0.0324,0.013523,0.002678,0.000431,3.072069
4073000,0.0324,0.013523,0.002678,0.000431,3.222505
4074000,0.0324,0.013523,0.002678,0.000431,3.125192
4075000,0.0324,0.013523,0.002678,0.000431,3.152458
4076000,0.0324,0.013523,0.002678,0.000431,3.149403
4077000,0.0324,0.013523,0.002678,0.000431,3.047506
4078000,0.0324,0.013523,0.002678,0.000431,3.004608
4079000,0.0324,0.013523,0.002678,0.000431,2.850999
4080000,0.0324,0.013523,0.002678,0.000431,3.008369
4081000,0.0324,0.013523,0.002678,0.000431,3.048799
4082000,0.0324,0.013523,0.002678,0.000431,3.153869
4083000,0.0324,0.013523,0.002678,0.000431,3.074537
4084000,0.0324,0.013523,0.002678,0.000431,3.061492
4085000,0.0324,0.013523,0.002678,0.000431,3.134477
4086000,0.0324,0.013523,0.002678,0.000431,3.087230
4087000,0.0324,0.013523,0.002678,0.000431,3.113439
4088000,0.0324,0.013523,0.002678,0.000431,3.071246
4089000,0.0324,0.013523,0.002678,0.000431,3.008486
4090000,0.0324,0.013523,0.002678,0.000431,2.937147
4091000,0.0324,0.013523,0.002678,0.000431,3.108033
4092000,0.0324,0.013523,0.002678,0.000431,2.969585
4093000,0.0324,0.013523,0.002678,0.000431,3.055498
4094000,0.0324,0.013523,0.002678,0.000431,3.122019
4095000,0.0324,0.013523,0.002678,0.000431,3.062314
4096000,0.0324,0.013523,0.002678,0.000431,3.102274
4097000,0.0324,0.013523,0.002678,0.000431,3.179255
4098000,0.0324,0.013523,0.002678,0.000431,3.027996
4099000,0.0324,0.013523,0.002678,0.000431,3.183016
4100000,0.0324,0.013523,0.002678,0.000431,3.101804
4101000,0.0324,0.013523,0.002678,0.000431,3.046330
4102000,0.0324,0.013523,0.002678,0.000431,3.190420
4103000,0.0324,0.013523,0.002678,0.000431,3.164329
4104000,0.0324,0.013523,0.002678,0.000431,3.171851
4105000,0.0324,0.013523,0.002678,0.000431,3.334510
4106000,0.0324,0.013523,0.002678,0.000431,3.083469
4107000,0.0324,0.013523,0.002678,0.000431,3.145407
4108000,0.0324,0.013523,0.002678,0.000431,3.436407
4109000,0.0324,0.013523,0.002678,0.000431,3.266226
4110000,0.0324,0.013523,0.002678,0.000431,3.467434
4111000,0.0324,0.013523,0.002678,0.000431,3.433351
4112000,0.0324,0.013523,0.002678,0.000431,3.340268
4113000,0.0324,0.013523,0.002678,0.000431,3.411608
4114000,0.0324,0.013523,0.002678,0.000431,3.434409
4115000,0.0324,0.013523,0.002678,0.000431,3.415722
4116000,0.0324,0.013523,0.002678,0.000431,3.417367
4117000,0.0324,0.013523,0.002678,0.000431,3.360131
4118000,0.0324,0.013523,0.002678,0.000431,3.488119
4119000,0.0324,0.013523,0.002678,0.000431,3.237314
4120000,0.0324,0.013523,0.002678,0.000431,3.316528
4121000,0.0324,0.013523,0.002678,0.000431,3.442636
4122000,0.0324,0.013523,0.002678,0.000431,3.472840
4123000,0.0324,0.013523,0.002678,0.000431,3.424536
4124000,0.0324,0.013523,0.002678,0.000431,3.390806
4125000,0.0324,0.013523,0.002678,0.000431,3.420658
4126000,0.0324,0.013523,0.002678,0.000431,3.386104
4127000,0.0324,0.013523,0.002678,0.000431,3.011895
4128000,0.0324,0.013523,0.002678,0.000431,3.060786
4129000,0.0324,0.013523,0.002678,0.000431,3.233788
4130000,0.0324,0.013523,0.002678,0.000431,3.083587
4131000,0.0324,0.013523,0.002678,0.000431,2.949722
4132000,0.0324,0.013523,0.002678,0.000431,3.447689
4133000,0.0324,0.013523,0.002678,0.000431,3.376115
4134000,0.0324,0.013523,0.002678,0.000431,3.283620
4135000,0.0324,0.013523,0.002678,0.000431,3.211105
4136000,0.0324,0.013523,0.002678,0.000431,3.317115
4137000,0.0324,0.013523,0.002678,0.000431,3.175611
4138000,0.0324,0.013523,0.002678,0.000431,3.303482
4139000,0.0324,0.013523,0.002678,0.000431,3.244601
4140000,0.0324,0.013523,0.002678,0.000431,3.123782
4141000,0.0324,0.013523,0.002678,0.000431,3.261172
4142000,0.0324,0.013523,0.002678,0.000431,3.370121
4143000,0.0324,0.013523,0.002678,0.000431,3.005196
4144000,0.0324,0.013523,0.002678,0.000431,3.051032
4145000,0.0324,0.013523,0.002678,0.000431,3.314060
4146000,0.0324,0.013523,0.002678,0.000431,3.155867
4147000,0.0324,0.013523,0.002678,0.000431,3.172791
4148000,0.0324,0.013523,0.002678,0.000431,3.008486
4149000,0.0324,0.013523,0.002678,0.000431,3.161743
4150000,0.0324,0.013523,0.002678,0.000431,2.869921
4151000,0.0324,0.013523,0.002678,0.000431,3.020592
4152000,0.0324,0.013523,0.002678,0.000431,2.999319
4153000,0.0324,0.013523,0.002678,0.000431,2.764380
4154000,0.0324,0.013523,0.002678,0.000431,2.610771
4155000,0.0324,0.013523,0.002678,0.000431,2.448700
4156000,0.0324,0.013523,0.002678,0.000431,2.839011
4157000,0.0324,0.013523,0.002678,0.000431,2.743695
4158000,0.0324,0.013523,0.002678,0.000431,2.829373
4159000,0.0324,0.013523,0.002678,0.000431,2.756741
4160000,0.0324,0.013523,0.002678,0.000431,2.744166
4161000,0.0324,0.013523,0.002678,0.000431,2.782832
4162000,0.0324,0.013523,0.002678,0.000431,2.586090
4163000,0.0324,0.013523,0.002678,0.000431,2.583387
4164000,0.0324,0.013523,0.002678,0.000431,2.704323
4165000,0.0324,0.013523,0.002678,0.000431,2.601839
4166000,0.0324,0.013523,0.002678,0.000431,2.506876
4167000,0.0324,0.013523,0.002678,0.000431,2.729122
4168000,0.0324,0.013523,0.002678,0.000431,2.898245
4169000,0.0324,0.013523,0.002678,0.000431,2.646735
4170000,0.0324,0.013523,0.002678,0.000431,2.593142
4171000,0.0324,0.013523,0.002678,0.000431,2.577981
4172000,0.0324,0.013523,0.002678,0.000431,2.665774
4173000,0.0324,0.013523,0.002678,0.000431,2.585150
4174000,0.0324,0.013523,0.002678,0.000431,2.742168
4175000,0.0324,0.013523,0.002678,0.000431,2.358321
4176000,0.0324,0.013523,0.002678,0.000431,2.697507
4177000,0.0324,0.013523,0.002678,0.000431,2.642974
4178000,0.0324,0.013523,0.002678,0.000431,2.484781
4179000,0.0324,0.013523,0.002678,0.000431,2.520862
4180000,0.0324,0.013523,0.002678,0.000431,2.670475
4181000,0.0324,0.013523,0.002678,0.000431,2.397105
4182000,0.0324,0.013523,0.002678,0.000431,2.364667
4183000,0.0324,0.013523,0.002678,0.000431,2.495828
4184000,0.0324,0.013523,0.002678,0.000431,2.552360
4185000,0.0324,0.013523,0.002678,0.000431,2.398515
4186000,0.0324,0.013523,0.002678,0.000431,2.533320
4187000,0.0324,0.013523,0.002678,0.000431,2.405802
4188000,0.0324,0.013523,0.002678,0.000431,2.578803
4189000,0.0324,0.013523,0.002678,0.000431,2.410738
4190000,0.0324,0.013523,0.002678,0.000431,2.340926
4191000,0.0324,0.013523,0.002678,0.000431,2.448700
4192000,0.0324,0.013523,0.002678,0.000431,2.330466
4193000,0.0324,0.013523,0.002678,0.000431,2.268529
4194000,0.0324,0.013523,0.002678,0.000431,2.302025
4195000,0.0324,0.013523,0.002678,0.000431,2.632631
4196000,0.0324,0.013523,0.002678,0.000431,2.636510
4197000,0.0324,0.013523,0.002678,0.000431,2.408505
4198000,0.0324,0.013523,0.002678,0.000431,2.134429
4199000,0.0324,0.013523,0.002678,0.000431,2.489952
4200000,0.0324,0.013523,0.002678,0.000431,2.395812
4201000,0.0324,0.013523,0.002678,0.000431,2.151706
4202000,0.0324,0.013523,0.002678,0.000431,2.246081
4203000,0.0324,0.013523,0.002678,0.000431,2.641328
4204000,0.0324,0.013523,0.002678,0.000431,2.370191
4205000,0.0324,0.013523,0.002678,0.000431,2.466681
4206000,0.0324,0.013523,0.002678,0.000431,2.412619
4207000,0.0324,0.013523,0.002678,0.000431,2.359261
4208000,0.0324,0.013523,0.002678,0.000431,2.260772
4209000,0.0324,0.013523,0.002678,0.000431,2.294620
4210000,0.0324,0.013523,0.002678,0.000431,2.710670
4211000,0.0324,0.013523,0.002678,0.000431,2.354912
4212000,0.0324,0.013523,0.002678,0.000431,2.437887
4213000,0.0324,0.013523,0.002678,0.000431,2.301907
4214000,0.0324,0.013523,0.002678,0.000431,2.347625
4215000,0.0324,0.013523,0.002678,0.000431,2.285336
4216000,0.0324,0.013523,0.002678,0.000431,2.470325
4217000,0.0324,0.013523,0.002678,0.000431,2.683639
4218000,0.0324,0.013523,0.002678,0.000431,2.565640
4219000,0.0324,0.013523,0.002678,0.000431,2.242085
4220000,0.0324,0.013523,0.002678,0.000431,2.414381
4221000,0.0324,0.013523,0.002678,0.000431,2.295208
4222000,0.0324,0.013523,0.002678,0.000431,2.506759
4223000,0.0324,0.013523,0.002678,0.000431,2.392639
4224000,0.0324,0.013523,0.002678,0.000431,2.595610
4225000,0.0324,0.013523,0.002678,0.000431,2.424489
4226000,0.0324,0.013523,0.002678,0.000431,2.320476
4227000,0.0324,0.013523,0.002678,0.000431,2.417085
4228000,0.0324,0.013523,0.002678,0.000431,2.356440
4229000,0.0324,0.013523,0.002678,0.000431,2.417437
4230000,0.0324,0.013523,0.002678,0.000431,2.314130
4231000,0.0324,0.013523,0.002678,0.000431,2.248079
4232000,0.0324,0.013523,0.002678,0.000431,2.407682
4233000,0.0324,0.013523,0.002678,0.000431,2.313307
4234000,0.0324,0.013523,0.002678,0.000431,2.379476
4235000,0.0324,0.013523,0.002678,0.000431,2.630046
4236000,0.0324,0.013523,0.002678,0.000431,2.259244
4237000,0.0324,0.013523,0.002678,0.000431,2.010202
4238000,0.0324,0.013523,0.002678,0.000431,2.064383
4239000,0.0324,0.013523,0.002678,0.000431,2.192371
4240000,0.0324,0.013523,0.002678,0.000431,2.086478
4241000,0.0324,0.013523,0.002678,0.000431,2.302142
4242000,0.0324,0.013523,0.002678,0.000431,2.278401
4243000,0.0324,0.013523,0.002678,0.000431,2.237266
4244000,0.0324,0.013523,0.002678,0.000431,2.222105
4245000,0.0324,0.013523,0.002678,0.000431,2.040172
4246000,0.0324,0.013523,0.002678,0.000431,2.151001
4247000,0.0324,0.013523,0.002678,0.000431,1.937100
4248000,0.0324,0.013523,0.002678,0.000431,2.040642
4249000,0.0324,0.013523,0.002678,0.000431,2.208355
4250000,0.0324,0.013523,0.002678,0.000431,2.188257
4251000,0.0324,0.013523,0.002678,0.000431,1.746469
4252000,0.0324,0.013523,0.002678,0.000431,2.077193
4253000,0.0324,0.013523,0.002678,0.000431,2.180970
4254000,0.0324,0.013523,0.002678,0.000431,1.924171
4255000,0.0324,0.013523,0.002678,0.000431,1.878570
4256000,0.0324,0.013523,0.002678,0.000431,2.027949
4257000,0.0324,0.013523,0.002678,0.000431,2.173214
4258000,0.0324,0.013523,0.002678,0.000431,1.994688
4259000,0.0324,0.013523,0.002678,0.000431,1.951203
4260000,0.0324,0.013523,0.002678,0.000431,1.962838
4261000,0.0324,0.013523,0.002678,0.000431,1.977764
4262000,0.0324,0.013523,0.002678,0.000431,1.866700
4263000,0.0324,0.013523,0.002678,0.000431,1.877983
4264000,0.0324,0.013523,0.002678,0.000431,1.921233
4265000,0.0324,0.013523,0.002678,0.000431,1.790894
4266000,0.0324,0.013523,0.002678,0.000431,1.748467
4267000,0.0324,0.013523,0.002678,0.000431,1.916297
4268000,0.0324,0.013523,0.002678,0.000431,1.814635
4269000,0.0324,0.013523,0.002678,0.000431,2.044285
4270000,0.0324,0.013523,0.002678,0.000431,2.240910
4271000,0.0324,0.013523,0.002678,0.000431,1.817103
4272000,0.0324,0.013523,0.002678,0.000431,1.985404
4273000,0.0324,0.013523,0.002678,0.000431,1.849306
4274000,0.0324,0.013523,0.002678,0.000431,1.968715
4275000,0.0324,0.013523,0.002678,0.000431,1.808406
4276000,0.0324,0.013523,0.002678,0.000431,1.697224
4277000,0.0324,0.013523,0.002678,0.000431,1.946032
4278000,0.0324,0.013523,0.002678,0.000431,2.018899
4279000,0.0324,0.013523,0.002678,0.000431,1.797594
4280000,0.0324,0.013523,0.002678,0.000431,1.842019
4281000,0.0324,0.013523,0.002678,0.000431,1.801942
4282000,0.0324,0.013523,0.002678,0.000431,1.879746
4283000,0.0324,0.013523,0.002678,0.000431,1.947207
4284000,0.0324,0.013523,0.002678,0.000431,1.924759
4285000,0.0324,0.013523,0.002678,0.000431,1.937217
4286000,0.0324,0.013523,0.002678,0.000431,1.821334
4287000,0.0324,0.013523,0.002678,0.000431,1.657617
4288000,0.0324,0.013523,0.002678,0.000431,1.906777
4289000,0.0324,0.013523,0.002678,0.000431,1.947324
4290000,0.0324,0.013523,0.002678,0.000431,1.886210
4291000,0.0324,0.013523,0.002678,0.000431,1.657735
4292000,0.0324,0.013523,0.002678,0.000431,1.960840
4293000,0.0324,0.013523,0.002678,0.000431,1.876690
4294000,0.0324,0.013523,0.002678,0.000431,1.766684
4295000,0.0324,0.013523,0.002678,0.000431,2.063677
4296000,0.0324,0.013523,0.002678,0.000431,1.787839
4297000,0.0324,0.013523,0.002678,0.000431,1.897375
4298000,0.0324,0.013523,0.002678,0.000431,1.875280
4299000,0.0324,0.013523,0.002678,0.000431,1.822627
4300000,0.0324,0.013523,0.002678,0.000431,1.905484
4301000,0.0324,0.013523,0.002678,0.000431,1.664199
4302000,0.0324,0.013523,0.002678,0.000431,1.934161
4303000,0.0324,0.013523,0.002678,0.000431,2.097408
4304000,0.0324,0.013523,0.002678,0.000431,1.747997
4305000,0.0324,0.013523,0.002678,0.000431,1.961898
4306000,0.0324,0.013523,0.002678,0.000431,1.861294
4307000,0.0324,0.013523,0.002678,0.000431,1.812990
4308000,0.0324,0.013523,0.002678,0.000431,1.862469
4309000,0.0324,0.013523,0.002678,0.000431,1.811109
4310000,0.0324,0.013523,0.002678,0.000431,1.882801
4311000,0.0324,0.013523,0.002678,0.000431,1.969890
4312000,0.0324,0.013523,0.002678,0.000431,1.867405
4313000,0.0324,0.013523,0.002678,0.000431,1.897963
4314000,0.0324,0.013523,0.002678,0.000431,2.036058
4315000,0.0324,0.013523,0.002678,0.000431,1.855888
4316000,0.0324,0.013523,0.002678,0.000431,2.000212
4317000,0.0324,0.013523,0.002678,0.000431,1.929460
4318000,0.0324,0.013523,0.002678,0.000431,1.981995
4319000,0.0324,0.013523,0.002678,0.000431,1.989282
4320000,0.0324,0.013523,0.002678,0.000431,2.046401
4321000,0.0324,0.013523,0.002678,0.000431,1.728722
4322000,0.0324,0.013523,0.002678,0.000431,2.079309
4323000,0.0324,0.013523,0.002678,0.000431,1.929225
4324000,0.0324,0.013523,0.002678,0.000431,2.016196
4325000,0.0324,0.013523,0.002678,0.000431,1.948382
4326000,0.0324,0.013523,0.002678,0.000431,1.871871
4327000,0.0324,0.013523,0.002678,0.000431,1.853654
4328000,0.0324,0.013523,0.002678,0.000431,2.006206
4329000,0.0324,0.013523,0.002678,0.000431,1.810287
4330000,0.0324,0.013523,0.002678,0.000431,1.819924
4331000,0.0324,0.013523,0.002678,0.000431,1.758809
4332000,0.0324,0.013523,0.002678,0.000431,2.007146
4333000,0.0324,0.013523,0.002678,0.000431,1.870814
4334000,0.0324,0.013523,0.002678,0.000431,1.898785
4335000,0.0324,0.013523,0.002678,0.000431,1.867170
4336000,0.0324,0.013523,0.002678,0.000431,1.722963
4337000,0.0324,0.013523,0.002678,0.000431,1.669018
4338000,0.0324,0.013523,0.002678,0.000431,1.847543
4339000,0.0324,0.013523,0.002678,0.000431,1.761630
4340000,0.0324,0.013523,0.002678,0.000431,1.917120
4341000,0.0324,0.013523,0.002678,0.000431,1.901959
4342000,0.0324,0.013523,0.002678,0.000431,1.655972
4343000,0.0324,0.013523,0.002678,0.000431,1.919470
4344000,0.0324,0.013523,0.002678,0.000431,1.875280
4345000,0.0324,0.013523,0.002678,0.000431,1.686882
4346000,0.0324,0.013523,0.002678,0.000431,1.754578
4347000,0.0324,0.013523,0.002678,0.000431,1.713091
4348000,0.0324,0.013523,0.002678,0.000431,1.666432
4349000,0.0324,0.013523,0.002678,0.000431,1.718144
4350000,0.0324,0.013523,0.002678,0.000431,1.783373
4351000,0.0324,0.013523,0.002678,0.000431,1.721670
4352000,0.0324,0.013523,0.002678,0.000431,1.750230
4353000,0.0324,0.013523,0.002678,0.000431,1.623299
4354000,0.0324,0.013523,0.002678,0.000431,1.829444
4355000,0.0324,0.013523,0.002678,0.000431,1.783490
4356000,0.0324,0.013523,0.002678,0.000431,1.712151
4357000,0.0324,0.013523,0.002678,0.000431,1.687000
4358000,0.0324,0.013523,0.002678,0.000431,1.426792
4359000,0.0324,0.013523,0.002678,0.000431,1.507416
4360000,0.0324,0.013523,0.002678,0.000431,1.547846
4361000,0.0324,0.013523,0.002678,0.000431,1.732600
4362000,0.0324,0.013523,0.002678,0.000431,1.865055
4363000,0.0324,0.013523,0.002678,0.000431,1.750700
4364000,0.0324,0.013523,0.002678,0.000431,1.906072
4365000,0.0324,0.013523,0.002678,0.000431,1.776438
4366000,0.0324,0.013523,0.002678,0.000431,1.725314
4367000,0.0324,0.013523,0.002678,0.000431,1.784901
4368000,0.0324,0.013523,0.002678,0.000431,1.744118
4369000,0.0324,0.013523,0.002678,0.000431,1.534565
4370000,0.0324,0.013523,0.002678,0.000431,1.792892
4371000,0.0324,0.013523,0.002678,0.000431,1.755989
4372000,0.0324,0.013523,0.002678,0.000431,1.852949
4373000,0.0324,0.013523,0.002678,0.000431,1.816398
4374000,0.0324,0.013523,0.002678,0.000431,1.836730
4375000,0.0324,0.013523,0.002678,0.000431,1.663141
4376000,0.0324,0.013523,0.002678,0.000431,1.833675
4377000,0.0324,0.013523,0.002678,0.000431,1.751993
4378000,0.0324,0.013523,0.002678,0.000431,1.871284
4379000,0.0324,0.013523,0.002678,0.000431,1.835203
4380000,0.0324,0.013523,0.002678,0.000431,1.895024
4381000,0.0324,0.013523,0.002678,0.000431,1.743060
4382000,0.0324,0.013523,0.002678,0.000431,1.781375
4383000,0.0324,0.013523,0.002678,0.000431,1.753520
4384000,0.0324,0.013523,0.002678,0.000431,1.773618
4385000,0.0324,0.013523,0.002678,0.000431,1.694404
4386000,0.0324,0.013523,0.002678,0.000431,1.701808
4387000,0.0324,0.013523,0.002678,0.000431,1.866818
4388000,0.0324,0.013523,0.002678,0.000431,1.838258
4389000,0.0324,0.013523,0.002678,0.000431,1.983993
4390000,0.0324,0.013523,0.002678,0.000431,1.661966
4391000,0.0324,0.013523,0.002678,0.000431,1.576170
4392000,0.0324,0.013523,0.002678,0.000431,1.813225
4393000,0.0324,0.013523,0.002678,0.000431,1.671838
4394000,0.0324,0.013523,0.002678,0.000431,1.700515
4395000,0.0324,0.013523,0.002678,0.000431,1.678655
4396000,0.0324,0.013523,0.002678,0.000431,1.709330
4397000,0.0324,0.013523,0.002678,0.000431,1.643749
4398000,0.0324,0.013523,0.002678,0.000431,1.602967
4399000,0.0324,0.013523,0.002678,0.000431,1.593800
4400000,0.0324,0.013523,0.002678,0.000431,1.761042
4401000,0.0324,0.013523,0.002678,0.000431,1.642221
4402000,0.0324,0.013523,0.002678,0.000431,1.835555
4403000,0.0324,0.013523,0.002678,0.000431,1.723903
4404000,0.0324,0.013523,0.002678,0.000431,1.656912
4405000,0.0324,0.013523,0.002678,0.000431,1.704394
4406000,0.0324,0.013523,0.002678,0.000431,1.641986
4407000,0.0324,0.013523,0.002678,0.000431,1.758927
4408000,0.0324,0.013523,0.002678,0.000431,1.697460
4409000,0.0324,0.013523,0.002678,0.000431,1.712268
4410000,0.0324,0.013523,0.002678,0.000431,1.655972
4411000,0.0324,0.013523,0.002678,0.000431,1.494958
4412000,0.0324,0.013523,0.002678,0.000431,1.797358
4413000,0.0324,0.013523,0.002678,0.000431,1.654797
4414000,0.0324,0.013523,0.002678,0.000431,1.773265
4415000,0.0324,0.013523,0.002678,0.000431,1.730720
4416000,0.0324,0.013523,0.002678,0.000431,1.698870
4417000,0.0324,0.013523,0.002678,0.000431,1.710388
4418000,0.0324,0.013523,0.002678,0.000431,1.823332
4419000,0.0324,0.013523,0.002678,0.000431,1.686529
4420000,0.0324,0.013523,0.002678,0.000431,1.789014
4421000,0.0324,0.013523,0.002678,0.000431,1.677480
4422000,0.0324,0.013523,0.002678,0.000431,1.682886
4423000,0.0324,0.013523,0.002678,0.000431,1.599324
4424000,0.0324,0.013523,0.002678,0.000431,1.744941
4425000,0.0324,0.013523,0.002678,0.000431,1.815223
4426000,0.0324,0.013523,0.002678,0.000431,1.701926
4427000,0.0324,0.013523,0.002678,0.000431,1.671721
4428000,0.0324,0.013523,0.002678,0.000431,1.661848
4429000,0.0324,0.013523,0.002678,0.000431,1.957784
4430000,0.0324,0.013523,0.002678,0.000431,1.686647
4431000,0.0324,0.013523,0.002678,0.000431,1.531745
4432000,0.0324,0.013523,0.002678,0.000431,1.776556
4433000,0.0324,0.013523,0.002678,0.000431,1.854947
4434000,0.0324,0.013523,0.002678,0.000431,1.558659
4435000,0.0324,0.013523,0.002678,0.000431,1.647510
4436000,0.0324,0.013523,0.002678,0.000431,1.889971
4437000,0.0324,0.013523,0.002678,0.000431,1.718144
4438000,0.0324,0.013523,0.002678,0.000431,1.781140
4439000,0.0324,0.013523,0.002678,0.000431,1.635052
4440000,0.0324,0.013523,0.002678,0.000431,1.717674
4441000,0.0324,0.013523,0.002678,0.000431,1.798181
4442000,0.0324,0.013523,0.002678,0.000431,1.918530
4443000,0.0324,0.013523,0.002678,0.000431,1.754931
4444000,0.0324,0.013523,0.002678,0.000431,1.747997
4445000,0.0324,0.013523,0.002678,0.000431,1.699340
4446000,0.0324,0.013523,0.002678,0.000431,1.774205
4447000,0.0324,0.013523,0.002678,0.000431,1.831677
4448000,0.0324,0.013523,0.002678,0.000431,1.732953
4449000,0.0324,0.013523,0.002678,0.000431,1.558306
4450000,0.0324,0.013523,0.002678,0.000431,1.685237
4451000,0.0324,0.013523,0.002678,0.000431,1.463461
4452000,0.0324,0.013523,0.002678,0.000431,1.631409
4453000,0.0324,0.013523,0.002678,0.000431,1.825565
4454000,0.0324,0.013523,0.002678,0.000431,1.701220
4455000,0.0324,0.013523,0.002678,0.000431,1.651036
4456000,0.0324,0.013523,0.002678,0.000431,1.828268
4457000,0.0324,0.013523,0.002678,0.000431,1.790894
4458000,0.0324,0.013523,0.002678,0.000431,1.713326
4459000,0.0324,0.013523,0.002678,0.000431,1.881979
4460000,0.0324,0.013523,0.002678,0.000431,1.785136
4461000,0.0324,0.013523,0.002678,0.000431,1.731425
4462000,0.0324,0.013523,0.002678,0.000431,1.660908
4463000,0.0324,0.013523,0.002678,0.000431,1.819806
4464000,0.0324,0.013523,0.002678,0.000431,1.554193
4465000,0.0324,0.013523,0.002678,0.000431,1.653269
4466000,0.0324,0.013523,0.002678,0.000431,1.784901
4467000,0.0324,0.013523,0.002678,0.000431,1.782785
4468000,0.0324,0.013523,0.002678,0.000431,1.721553
4469000,0.0324,0.013523,0.002678,0.000431,1.690643
4470000,0.0324,0.013523,0.002678,0.000431,1.809816
4471000,0.0324,0.013523,0.002678,0.000431,1.612369
4472000,0.0324,0.013523,0.002678,0.000431,1.746586
4473000,0.0324,0.013523,0.002678,0.000431,1.809699
4474000,0.0324,0.013523,0.002678,0.000431,1.872341
4475000,0.0324,0.013523,0.002678,0.000431,1.722258
4476000,0.0324,0.013523,0.002678,0.000431,1.761277
4477000,0.0324,0.013523,0.002678,0.000431,1.754343
4478000,0.0324,0.013523,0.002678,0.000431,1.933691
4479000,0.0324,0.013523,0.002678,0.000431,1.613427
4480000,0.0324,0.013523,0.002678,0.000431,1.772913
4481000,0.0324,0.013523,0.002678,0.000431,1.700750
4482000,0.0324,0.013523,0.002678,0.000431,1.757987
4483000,0.0324,0.013523,0.002678,0.000431,1.374375
4484000,0.0324,0.013523,0.002678,0.000431,1.772560
4485000,0.0324,0.013523,0.002678,0.000431,1.821099
4486000,0.0324,0.013523,0.002678,0.000431,1.678773
4487000,0.0324,0.013523,0.002678,0.000431,1.709095
4488000,0.0324,0.013523,0.002678,0.000431,1.653622
4489000,0.0324,0.013523,0.002678,0.000431,1.698752
4490000,0.0324,0.013523,0.002678,0.000431,1.592154
4491000,0.0324,0.013523,0.002678,0.000431,1.636815
4492000,0.0324,0.013523,0.002678,0.000431,1.725549
4493000,0.0324,0.013523,0.002678,0.000431,1.642104
4494000,0.0324,0.013523,0.002678,0.000431,1.711563
4495000,0.0324,0.013523,0.002678,0.000431,1.740005
4496000,0.0324,0.013523,0.002678,0.000431,1.684649
4497000,0.0324,0.013523,0.002678,0.000431,1.893497
4498000,0.0324,0.013523,0.002678,0.000431,1.715441
4499000,0.0324,0.013523,0.002678,0.000431,1.866583
4500000,0.0324,0.013523,0.002678,0.000431,1.680300
4501000,0.0324,0.013523,0.002678,0.000431,1.594975
4502000,0.0324,0.013523,0.002678,0.000431,1.783843
4503000,0.0324,0.013523,0.002678,0.000431,1.581342
4504000,0.0324,0.013523,0.002678,0.000431,1.740592
4505000,0.0324,0.013523,0.002678,0.000431,1.736126
4506000,0.0324,0.013523,0.002678,0.000431,1.703453
4507000,0.0324,0.013523,0.002678,0.000431,1.768447
4508000,0.0324,0.013523,0.002678,0.000431,1.611546
4509000,0.0324,0.013523,0.002678,0.000431,1.682181
4510000,0.0324,0.013523,0.002678,0.000431,1.773265
4511000,0.0324,0.013523,0.002678,0.000431,1.710740
4512000,0.0324,0.013523,0.002678,0.000431,1.726019
4513000,0.0324,0.013523,0.002678,0.000431,1.707920
4514000,0.0324,0.013523,0.002678,0.000431,1.651624
4515000,0.0324,0.013523,0.002678,0.000431,1.746939
4516000,0.0324,0.013523,0.002678,0.000431,1.546083
4517000,0.0324,0.013523,0.002678,0.000431,1.544673
4518000,0.0324,0.013523,0.002678,0.000431,1.768094
4519000,0.0324,0.013523,0.002678,0.000431,1.592272
4520000,0.0324,0.013523,0.002678,0.000431,1.691466
4521000,0.0324,0.013523,0.002678,0.000431,1.650683
4522000,0.0324,0.013523,0.002678,0.000431,1.677245
4523000,0.0324,0.013523,0.002678,0.000431,1.677715
4524000,0.0324,0.013523,0.002678,0.000431,1.683356
4525000,0.0324,0.013523,0.002678,0.000431,1.664787
4526000,0.0324,0.013523,0.002678,0.000431,1.591449
4527000,0.0324,0.013523,0.002678,0.000431,1.573232
4528000,0.0324,0.013523,0.002678,0.000431,1.592977
4529000,0.0324,0.013523,0.002678,0.000431,1.741768
4530000,0.0324,0.013523,0.002678,0.000431,1.740475
4531000,0.0324,0.013523,0.002678,0.000431,1.651388
4532000,0.0324,0.013523,0.002678,0.000431,1.784665
4533000,0.0324,0.013523,0.002678,0.000431,1.733541
4534000,0.0324,0.013523,0.002678,0.000431,1.694756
4535000,0.0324,0.013523,0.002678,0.000431,1.735069
4536000,0.0324,0.013523,0.002678,0.000431,1.607315
4537000,0.0324,0.013523,0.002678,0.000431,1.534095
4538000,0.0324,0.013523,0.002678,0.000431,1.524576
4539000,0.0324,0.013523,0.002678,0.000431,1.539149
4540000,0.0324,0.013523,0.002678,0.000431,1.777849
4541000,0.0324,0.013523,0.002678,0.000431,1.661496
4542000,0.0324,0.013523,0.002678,0.000431,1.650801
4543000,0.0324,0.013523,0.002678,0.000431,1.510355
4544000,0.0324,0.013523,0.002678,0.000431,1.727077
4545000,0.0324,0.013523,0.002678,0.000431,1.676540
4546000,0.0324,0.013523,0.002678,0.000431,1.578639
4547000,0.0324,0.013523,0.002678,0.000431,1.664552
4548000,0.0324,0.013523,0.002678,0.000431,1.761630
4549000,0.0324,0.013523,0.002678,0.000431,1.712621
4550000,0.0324,0.013523,0.002678,0.000431,1.672661
4551000,0.0324,0.013523,0.002678,0.000431,1.685354
4552000,0.0324,0.013523,0.002678,0.000431,1.526574
4553000,0.0324,0.013523,0.002678,0.000431,1.777731
4554000,0.0324,0.013523,0.002678,0.000431,1.556426
4555000,0.0324,0.013523,0.002678,0.000431,1.582635
4556000,0.0324,0.013523,0.002678,0.000431,1.503303
4557000,0.0324,0.013523,0.002678,0.000431,1.615660
4558000,0.0324,0.013523,0.002678,0.000431,1.694404
4559000,0.0324,0.013523,0.002678,0.000431,1.578991
4560000,0.0324,0.013523,0.002678,0.000431,1.705569
4561000,0.0324,0.013523,0.002678,0.000431,1.643749
4562000,0.0324,0.013523,0.002678,0.000431,1.669253
4563000,0.0324,0.013523,0.002678,0.000431,1.544790
4564000,0.0324,0.013523,0.002678,0.000431,1.600264
4565000,0.0324,0.013523,0.002678,0.000431,1.586866
4566000,0.0324,0.013523,0.002678,0.000431,1.460170
4567000,0.0324,0.013523,0.002678,0.000431,1.712151
4568000,0.0324,0.013523,0.002678,0.000431,1.692406
4569000,0.0324,0.013523,0.002678,0.000431,1.694991
4570000,0.0324,0.013523,0.002678,0.000431,1.858003
4571000,0.0324,0.013523,0.002678,0.000431,1.612017
4572000,0.0324,0.013523,0.002678,0.000431,1.535623
4573000,0.0324,0.013523,0.002678,0.000431,1.678067
4574000,0.0324,0.013523,0.002678,0.000431,1.454411
4575000,0.0324,0.013523,0.002678,0.000431,1.638460
4576000,0.0324,0.013523,0.002678,0.000431,1.671838
4577000,0.0324,0.013523,0.002678,0.000431,1.629646
4578000,0.0324,0.013523,0.002678,0.000431,1.697342
4579000,0.0324,0.013523,0.002678,0.000431,1.677950
4580000,0.0324,0.013523,0.002678,0.000431,1.635875
4581000,0.0324,0.013523,0.002678,0.000431,1.578051
4582000,0.0324,0.013523,0.002678,0.000431,1.630704
4583000,0.0324,0.013523,0.002678,0.000431,1.486496
4584000,0.0324,0.013523,0.002678,0.000431,1.594387
4585000,0.0324,0.013523,0.002678,0.000431,1.564065
4586000,0.0324,0.013523,0.002678,0.000431,1.663611
4587000,0.0324,0.013523,0.002678,0.000431,1.714266
4588000,0.0324,0.013523,0.002678,0.000431,1.688527
4589000,0.0324,0.013523,0.002678,0.000431,1.685707
4590000,0.0324,0.013523,0.002678,0.000431,1.486026
4591000,0.0324,0.013523,0.002678,0.000431,1.707214
4592000,0.0324,0.013523,0.002678,0.000431,1.686412
4593000,0.0324,0.013523,0.002678,0.000431,1.622477
4594000,0.0324,0.013523,0.002678,0.000431,1.469925
4595000,0.0324,0.013523,0.002678,0.000431,1.603319
4596000,0.0324,0.013523,0.002678,0.000431,1.624357
4597000,0.0324,0.013523,0.002678,0.000431,1.606728
4598000,0.0324,0.013523,0.002678,0.000431,1.643162
4599000,0.0324,0.013523,0.002678,0.000431,1.709682
4600000,0.0324,0.013523,0.002678,0.000431,1.648803
4601000,0.0324,0.013523,0.002678,0.000431,1.797829
4602000,0.0324,0.013523,0.002678,0.000431,1.543968
4603000,0.0324,0.013523,0.002678,0.000431,1.741298
4604000,0.0324,0.013523,0.002678,0.000431,1.592742
4605000,0.0324,0.013523,0.002678,0.000431,1.643632
4606000,0.0324,0.013523,0.002678,0.000431,1.674659
4607000,0.0324,0.013523,0.002678,0.000431,1.538326
4608000,0.0324,0.013523,0.002678,0.000431,1.785958
4609000,0.0324,0.013523,0.002678,0.000431,1.687117
4610000,0.0324,0.013523,0.002678,0.000431,1.717439
4611000,0.0324,0.013523,0.002678,0.000431,1.636933
4612000,0.0324,0.013523,0.002678,0.000431,1.544790
4613000,0.0324,0.013523,0.002678,0.000431,1.633759
4614000,0.0324,0.013523,0.002678,0.000431,1.677715
4615000,0.0324,0.013523,0.002678,0.000431,1.666667
4616000,0.0324,0.013523,0.002678,0.000431,1.723668
4617000,0.0324,0.013523,0.002678,0.000431,1.571587
4618000,0.0324,0.013523,0.002678,0.000431,1.710975
4619000,0.0324,0.013523,0.002678,0.000431,1.663024
4620000,0.0324,0.013523,0.002678,0.000431,1.461580
4621000,0.0324,0.013523,0.002678,0.000431,1.612722
4622000,0.0324,0.013523,0.002678,0.000431,1.620596
4623000,0.0324,0.013523,0.002678,0.000431,1.732953
4624000,0.0324,0.013523,0.002678,0.000431,1.769739
4625000,0.0324,0.013523,0.002678,0.000431,1.573702
4626000,0.0324,0.013523,0.002678,0.000431,1.568414
4627000,0.0324,0.013523,0.002678,0.000431,1.736596
4628000,0.0324,0.013523,0.002678,0.000431,1.626943
4629000,0.0324,0.013523,0.002678,0.000431,1.627765
4630000,0.0324,0.013523,0.002678,0.000431,1.604965
4631000,0.0324,0.013523,0.002678,0.000431,1.545731
4632000,0.0324,0.013523,0.002678,0.000431,1.606610
4633000,0.0324,0.013523,0.002678,0.000431,1.727077
4634000,0.0324,0.013523,0.002678,0.000431,1.624827
4635000,0.0324,0.013523,0.002678,0.000431,1.683591
4636000,0.0324,0.013523,0.002678,0.000431,1.690173
4637000,0.0324,0.013523,0.002678,0.000431,1.700515
4638000,0.0324,0.013523,0.002678,0.000431,1.523283
4639000,0.0324,0.013523,0.002678,0.000431,1.604612
4640000,0.0324,0.013523,0.002678,0.000431,1.634582
4641000,0.0324,0.013523,0.002678,0.000431,1.669488
4642000,0.0324,0.013523,0.002678,0.000431,1.549139
4643000,0.0324,0.013523,0.002678,0.000431,1.526456
4644000,0.0324,0.013523,0.002678,0.000431,1.573350
4645000,0.0324,0.013523,0.002678,0.000431,1.650096
4646000,0.0324,0.013523,0.002678,0.000431,1.606023
4647000,0.0324,0.013523,0.002678,0.000431,1.659498
4648000,0.0324,0.013523,0.002678,0.000431,1.616953
4649000,0.0324,0.013523,0.002678,0.000431,1.521872
4650000,0.0324,0.013523,0.002678,0.000431,1.629176
4651000,0.0324,0.013523,0.002678,0.000431,1.566181
4652000,0.0324,0.013523,0.002678,0.000431,1.558659
4653000,0.0324,0.013523,0.002678,0.000431,1.446184
4654000,0.0324,0.013523,0.002678,0.000431,1.569354
4655000,0.0324,0.013523,0.002678,0.000431,1.619186
4656000,0.0324,0.013523,0.002678,0.000431,1.435254
4657000,0.0324,0.013523,0.002678,0.000431,1.517994
4658000,0.0324,0.013523,0.002678,0.000431,1.426322
4659000,0.0324,0.013523,0.002678,0.000431,1.496369
4660000,0.0324,0.013523,0.002678,0.000431,1.505771
4661000,0.0324,0.013523,0.002678,0.000431,1.439015
4662000,0.0324,0.013523,0.002678,0.000431,1.605435
4663000,0.0324,0.013523,0.002678,0.000431,1.490845
4664000,0.0324,0.013523,0.002678,0.000431,1.591919
4665000,0.0324,0.013523,0.002678,0.000431,1.592507
4666000,0.0324,0.013523,0.002678,0.000431,1.442893
4667000,0.0324,0.013523,0.002678,0.000431,1.418330
4668000,0.0324,0.013523,0.002678,0.000431,1.468985
4669000,0.0324,0.013523,0.002678,0.000431,1.543380
4670000,0.0324,0.013523,0.002678,0.000431,1.509532
4671000,0.0324,0.013523,0.002678,0.000431,1.648098
4672000,0.0324,0.013523,0.002678,0.000431,1.460170
4673000,0.0324,0.013523,0.002678,0.000431,1.717439
4674000,0.0324,0.013523,0.002678,0.000431,1.576053
4675000,0.0324,0.013523,0.002678,0.000431,1.454999
4676000,0.0324,0.013523,0.002678,0.000431,1.410338
4677000,0.0324,0.013523,0.002678,0.000431,1.442423
4678000,0.0324,0.013523,0.002678,0.000431,1.550784
4679000,0.0324,0.013523,0.002678,0.000431,1.520462
4680000,0.0324,0.013523,0.002678,0.000431,1.621654
4681000,0.0324,0.013523,0.002678,0.000431,1.570764
4682000,0.0324,0.013523,0.002678,0.000431,1.622359
4683000,0.0324,0.013523,0.002678,0.000431,1.577111
4684000,0.0324,0.013523,0.002678,0.000431,1.512940
4685000,0.0324,0.013523,0.002678,0.000431,1.674071
4686000,0.0324,0.013523,0.002678,0.000431,1.592624
4687000,0.0324,0.013523,0.002678,0.000431,1.653622
4688000,0.0324,0.013523,0.002678,0.000431,1.718262
4689000,0.0324,0.013523,0.002678,0.000431,1.516349
4690000,0.0324,0.013523,0.002678,0.000431,1.585925
4691000,0.0324,0.013523,0.002678,0.000431,1.569354
4692000,0.0324,0.013523,0.002678,0.000431,1.542557
4693000,0.0324,0.013523,0.002678,0.000431,1.493901
4694000,0.0324,0.013523,0.002678,0.000431,1.744353
4695000,0.0324,0.013523,0.002678,0.000431,1.759279
4696000,0.0324,0.013523,0.002678,0.000431,1.597326
4697000,0.0324,0.013523,0.002678,0.000431,1.327951
4698000,0.0324,0.013523,0.002678,0.000431,1.546201
4699000,0.0324,0.013523,0.002678,0.000431,1.460170
4700000,0.0324,0.013523,0.002678,0.000431,1.551254
4701000,0.0324,0.013523,0.002678,0.000431,1.530805
4702000,0.0324,0.013523,0.002678,0.000431,1.595328
4703000,0.0324,0.013523,0.002678,0.000431,1.633877
4704000,0.0324,0.013523,0.002678,0.000431,1.650801
4705000,0.0324,0.013523,0.002678,0.000431,1.545496
4706000,0.0324,0.013523,0.002678,0.000431,1.695697
4707000,0.0324,0.013523,0.002678,0.000431,1.590156
4708000,0.0324,0.013523,0.002678,0.000431,1.594622
4709000,0.0324,0.013523,0.002678,0.000431,1.473921
4710000,0.0324,0.013523,0.002678,0.000431,1.448182
4711000,0.0324,0.013523,0.002678,0.000431,1.655737
4712000,0.0324,0.013523,0.002678,0.000431,1.551372
4713000,0.0324,0.013523,0.002678,0.000431,1.530099
4714000,0.0324,0.013523,0.002678,0.000431,1.712738
4715000,0.0324,0.013523,0.002678,0.000431,1.582752
4716000,0.0324,0.013523,0.002678,0.000431,1.535976
4717000,0.0324,0.013523,0.002678,0.000431,1.730367
4718000,0.0324,0.013523,0.002678,0.000431,1.650566
4719000,0.0324,0.013523,0.002678,0.000431,1.574408
4720000,0.0324,0.013523,0.002678,0.000431,1.523165
4721000,0.0324,0.013523,0.002678,0.000431,1.557719
4722000,0.0324,0.013523,0.002678,0.000431,1.734128
4723000,0.0324,0.013523,0.002678,0.000431,1.696402
4724000,0.0324,0.013523,0.002678,0.000431,1.604847
4725000,0.0324,0.013523,0.002678,0.000431,1.622006
4726000,0.0324,0.013523,0.002678,0.000431,1.620479
4727000,0.0324,0.013523,0.002678,0.000431,1.792187
4728000,0.0324,0.013523,0.002678,0.000431,1.489082
4729000,0.0324,0.013523,0.002678,0.000431,1.684766
4730000,0.0324,0.013523,0.002678,0.000431,1.731308
4731000,0.0324,0.013523,0.002678,0.000431,1.657735
4732000,0.0324,0.013523,0.002678,0.000431,1.530687
4733000,0.0324,0.013523,0.002678,0.000431,1.777849
4734000,0.0324,0.013523,0.002678,0.000431,1.643867
4735000,0.0324,0.013523,0.002678,0.000431,1.796653
4736000,0.0324,0.013523,0.002678,0.000431,1.723551
4737000,0.0324,0.013523,0.002678,0.000431,1.618833
4738000,0.0324,0.013523,0.002678,0.000431,1.580754
4739000,0.0324,0.013523,0.002678,0.000431,1.474744
4740000,0.0324,0.013523,0.002678,0.000431,1.667960
4741000,0.0324,0.013523,0.002678,0.000431,1.661261
4742000,0.0324,0.013523,0.002678,0.000431,1.744001
4743000,0.0324,0.013523,0.002678,0.000431,1.510355
4744000,0.0324,0.013523,0.002678,0.000431,1.456409
4745000,0.0324,0.013523,0.002678,0.000431,1.446184
4746000,0.0324,0.013523,0.002678,0.000431,1.586983
4747000,0.0324,0.013523,0.002678,0.000431,1.590156
4748000,0.0324,0.013523,0.002678,0.000431,1.524341
4749000,0.0324,0.013523,0.002678,0.000431,1.661496
4750000,0.0324,0.013523,0.002678,0.000431,1.599088
4751000,0.0324,0.013523,0.002678,0.000431,1.782197
4752000,0.0324,0.013523,0.002678,0.000431,1.582987
4753000,0.0324,0.013523,0.002678,0.000431,1.568296
4754000,0.0324,0.013523,0.002678,0.000431,1.688292
4755000,0.0324,0.013523,0.002678,0.000431,1.683826
4756000,0.0324,0.013523,0.002678,0.000431,1.672426
4757000,0.0324,0.013523,0.002678,0.000431,1.535506
4758000,0.0324,0.013523,0.002678,0.000431,1.569001
4759000,0.0324,0.013523,0.002678,0.000431,1.859531
4760000,0.0324,0.013523,0.002678,0.000431,1.671368
4761000,0.0324,0.013523,0.002678,0.000431,1.812050
4762000,0.0324,0.013523,0.002678,0.000431,1.649155
4763000,0.0324,0.013523,0.002678,0.000431,1.793245
4764000,0.0324,0.013523,0.002678,0.000431,1.595092
4765000,0.0324,0.013523,0.002678,0.000431,1.689468
4766000,0.0324,0.013523,0.002678,0.000431,1.569471
4767000,0.0324,0.013523,0.002678,0.000431,1.731308
4768000,0.0324,0.013523,0.002678,0.000431,1.911831
4769000,0.0324,0.013523,0.002678,0.000431,1.611194
4770000,0.0324,0.013523,0.002678,0.000431,1.748584
4771000,0.0324,0.013523,0.002678,0.000431,1.831089
4772000,0.0324,0.013523,0.002678,0.000431,1.716617
4773000,0.0324,0.013523,0.002678,0.000431,1.780905
4774000,0.0324,0.013523,0.002678,0.000431,1.600969
4775000,0.0324,0.013523,0.002678,0.000431,1.516114
4776000,0.0324,0.013523,0.002678,0.000431,1.807819
4777000,0.0324,0.013523,0.002678,0.000431,1.817338
4778000,0.0324,0.013523,0.002678,0.000431,1.775616
4779000,0.0324,0.013523,0.002678,0.000431,1.926052
4780000,0.0324,0.013523,0.002678,0.000431,1.833792
4781000,0.0324,0.013523,0.002678,0.000431,1.725666
4782000,0.0324,0.013523,0.002678,0.000431,1.693934
4783000,0.0324,0.013523,0.002678,0.000431,1.681476
4784000,0.0324,0.013523,0.002678,0.000431,1.749877
4785000,0.0324,0.013523,0.002678,0.000431,1.824037
4786000,0.0324,0.013523,0.002678,0.000431,1.828151
4787000,0.0324,0.013523,0.002678,0.000431,1.820276
4788000,0.0324,0.013523,0.002678,0.000431,1.668313
4789000,0.0324,0.013523,0.002678,0.000431,1.766214
4790000,0.0324,0.013523,0.002678,0.000431,1.655032
4791000,0.0324,0.013523,0.002678,0.000431,1.706274
4792000,0.0324,0.013523,0.002678,0.000431,1.676540
4793000,0.0324,0.013523,0.002678,0.000431,1.702631
4794000,0.0324,0.013523,0.002678,0.000431,1.750230
4795000,0.0324,0.013523,0.002678,0.000431,1.693581
4796000,0.0324,0.013523,0.002678,0.000431,1.660908
4797000,0.0324,0.013523,0.002678,0.000431,1.689703
4798000,0.0324,0.013523,0.002678,0.000431,1.812990
4799000,0.0324,0.013523,0.002678,0.000431,1.619421
4800000,0.0324,0.013523,0.002678,0.000431,1.718850
4801000,0.0324,0.013523,0.002678,0.000431,1.665727
4802000,0.0324,0.013523,0.002678,0.000431,1.512000
4803000,0.0324,0.013523,0.002678,0.000431,1.766684
4804000,0.0324,0.013523,0.002678,0.000431,1.570059
4805000,0.0324,0.013523,0.002678,0.000431,1.604847
4806000,0.0324,0.013523,0.002678,0.000431,1.818984
4807000,0.0324,0.013523,0.002678,0.000431,1.771620
4808000,0.0324,0.013523,0.002678,0.000431,1.743883
4809000,0.0324,0.013523,0.002678,0.000431,1.482030
4810000,0.0324,0.013523,0.002678,0.000431,1.709800
4811000,0.0324,0.013523,0.002678,0.000431,1.775733
4812000,0.0324,0.013523,0.002678,0.000431,1.530687
4813000,0.0324,0.013523,0.002678,0.000431,1.663846
4814000,0.0324,0.013523,0.002678,0.000431,1.711445
4815000,0.0324,0.013523,0.002678,0.000431,1.810169
4816000,0.0324,0.013523,0.002678,0.000431,1.775616
4817000,0.0324,0.013523,0.002678,0.000431,1.700633
4818000,0.0324,0.013523,0.002678,0.000431,1.664552
4819000,0.0324,0.013523,0.002678,0.000431,1.531275
4820000,0.0324,0.013523,0.002678,0.000431,1.810169
4821000,0.0324,0.013523,0.002678,0.000431,1.738242
4822000,0.0324,0.013523,0.002678,0.000431,1.639401
4823000,0.0324,0.013523,0.002678,0.000431,1.834145
4824000,0.0324,0.013523,0.002678,0.000431,1.628353
4825000,0.0324,0.013523,0.002678,0.000431,1.606728
4826000,0.0324,0.013523,0.002678,0.000431,1.787486
4827000,0.0324,0.013523,0.002678,0.000431,1.798769
4828000,0.0324,0.013523,0.002678,0.000431,1.767506
4829000,0.0324,0.013523,0.002678,0.000431,1.643867
4830000,0.0324,0.013523,0.002678,0.000431,1.673954
4831000,0.0324,0.013523,0.002678,0.000431,1.860001
4832000,0.0324,0.013523,0.002678,0.000431,1.673014
4833000,0.0324,0.013523,0.002678,0.000431,1.685824
4834000,0.0324,0.013523,0.002678,0.000431,1.705451
4835000,0.0324,0.013523,0.002678,0.000431,1.788779
4836000,0.0324,0.013523,0.002678,0.000431,1.681946
4837000,0.0324,0.013523,0.002678,0.000431,1.584750
4838000,0.0324,0.013523,0.002678,0.000431,1.741533
4839000,0.0324,0.013523,0.002678,0.000431,1.718144
4840000,0.0324,0.013523,0.002678,0.000431,1.796653
4841000,0.0324,0.013523,0.002678,0.000431,1.755989
4842000,0.0324,0.013523,0.002678,0.000431,1.668195
4843000,0.0324,0.013523,0.002678,0.000431,1.780082
4844000,0.0324,0.013523,0.002678,0.000431,1.835438
4845000,0.0324,0.013523,0.002678,0.000431,1.793480
4846000,0.0324,0.013523,0.002678,0.000431,1.802765
4847000,0.0324,0.013523,0.002678,0.000431,1.915122
4848000,0.0324,0.013523,0.002678,0.000431,1.693581
4849000,0.0324,0.013523,0.002678,0.000431,1.802765
4850000,0.0324,0.013523,0.002678,0.000431,1.730720
4851000,0.0324,0.013523,0.002678,0.000431,1.909480
4852000,0.0324,0.013523,0.002678,0.000431,1.647863
4853000,0.0324,0.013523,0.002678,0.000431,1.946972
4854000,0.0324,0.013523,0.002678,0.000431,1.680771
4855000,0.0324,0.013523,0.002678,0.000431,1.670546
4856000,0.0324,0.013523,0.002678,0.000431,1.814165
4857000,0.0324,0.013523,0.002678,0.000431,1.747644
4858000,0.0324,0.013523,0.002678,0.000431,1.732248
4859000,0.0324,0.013523,0.002678,0.000431,1.748584
4860000,0.0324,0.013523,0.002678,0.000431,1.916179
4861000,0.0324,0.013523,0.002678,0.000431,1.517759
4862000,0.0324,0.013523,0.002678,0.000431,1.705804
4863000,0.0324,0.013523,0.002678,0.000431,1.698635
4864000,0.0324,0.013523,0.002678,0.000431,1.925934
4865000,0.0324,0.013523,0.002678,0.000431,1.698165
4866000,0.0324,0.013523,0.002678,0.000431,1.808054
4867000,0.0324,0.013523,0.002678,0.000431,1.854242
4868000,0.0324,0.013523,0.002678,0.000431,1.771150
4869000,0.0324,0.013523,0.002678,0.000431,1.945326
4870000,0.0324,0.013523,0.002678,0.000431,1.881509
4871000,0.0324,0.013523,0.002678,0.000431,1.764216
4872000,0.0324,0.013523,0.002678,0.000431,1.959900
4873000,0.0324,0.013523,0.002678,0.000431,1.948500
4874000,0.0324,0.013523,0.002678,0.000431,1.823802
4875000,0.0324,0.013523,0.002678,0.000431,1.811109
4876000,0.0324,0.013523,0.002678,0.000431,1.737654
4877000,0.0324,0.013523,0.002678,0.000431,1.838258
4878000,0.0324,0.013523,0.002678,0.000431,2.038409
4879000,0.0324,0.013523,0.002678,0.000431,1.929695
4880000,0.0324,0.013523,0.002678,0.000431,1.914887
4881000,0.0324,0.013523,0.002678,0.000431,1.743531
4882000,0.0324,0.013523,0.002678,0.000431,1.757869
4883000,0.0324,0.013523,0.002678,0.000431,1.791600
4884000,0.0324,0.013523,0.002678,0.000431,1.926052
4885000,0.0324,0.013523,0.002678,0.000431,1.968480
4886000,0.0324,0.013523,0.002678,0.000431,1.914887
4887000,0.0324,0.013523,0.002678,0.000431,2.181558
4888000,0.0324,0.013523,0.002678,0.000431,1.911478
4889000,0.0324,0.013523,0.002678,0.000431,1.744706
4890000,0.0324,0.013523,0.002678,0.000431,1.916532
4891000,0.0324,0.013523,0.002678,0.000431,1.903251
4892000,0.0324,0.013523,0.002678,0.000431,1.979997
4893000,0.0324,0.013523,0.002678,0.000431,1.696284
4894000,0.0324,0.013523,0.002678,0.000431,1.860824
4895000,0.0324,0.013523,0.002678,0.000431,1.641516
4896000,0.0324,0.013523,0.002678,0.000431,1.829444
4897000,0.0324,0.013523,0.002678,0.000431,1.989400
4898000,0.0324,0.013523,0.002678,0.000431,1.719202
4899000,0.0324,0.013523,0.002678,0.000431,2.022072
4900000,0.0324,0.013523,0.002678,0.000431,1.775851
4901000,0.0324,0.013523,0.002678,0.000431,1.705687
4902000,0.0324,0.013523,0.002678,0.000431,1.938980
4903000,0.0324,0.013523,0.002678,0.000431,1.879276
4904000,0.0324,0.013523,0.002678,0.000431,2.033120
4905000,0.0324,0.013523,0.002678,0.000431,1.931458
4906000,0.0324,0.013523,0.002678,0.000431,1.908305
4907000,0.0324,0.013523,0.002678,0.000431,1.707802
4908000,0.0324,0.013523,0.002678,0.000431,1.860589
4909000,0.0324,0.013523,0.002678,0.000431,1.965894
4910000,0.0324,0.013523,0.002678,0.000431,1.831207
4911000,0.0324,0.013523,0.002678,0.000431,1.857298
4912000,0.0324,0.013523,0.002678,0.000431,1.885975
4913000,0.0324,0.013523,0.002678,0.000431,1.801002
4914000,0.0324,0.013523,0.002678,0.000431,1.785841
4915000,0.0324,0.013523,0.002678,0.000431,1.895495
4916000,0.0324,0.013523,0.002678,0.000431,1.903369
4917000,0.0324,0.013523,0.002678,0.000431,1.932163
4918000,0.0324,0.013523,0.002678,0.000431,1.873987
4919000,0.0324,0.013523,0.002678,0.000431,2.118798
4920000,0.0324,0.013523,0.002678,0.000431,2.085303
4921000,0.0324,0.013523,0.002678,0.000431,1.904074
4922000,0.0324,0.013523,0.002678,0.000431,2.004913
4923000,0.0324,0.013523,0.002678,0.000431,1.837788
4924000,0.0324,0.013523,0.002678,0.000431,1.832382
4925000,0.0324,0.013523,0.002678,0.000431,2.037234
4926000,0.0324,0.013523,0.002678,0.000431,2.091296
4927000,0.0324,0.013523,0.002678,0.000431,2.078251
4928000,0.0324,0.013523,0.002678,0.000431,2.083305
4929000,0.0324,0.013523,0.002678,0.000431,1.884094
4930000,0.0324,0.013523,0.002678,0.000431,1.794420
4931000,0.0324,0.013523,0.002678,0.000431,1.953789
4932000,0.0324,0.013523,0.002678,0.000431,2.086713
4933000,0.0324,0.013523,0.002678,0.000431,1.918530
4934000,0.0324,0.013523,0.002678,0.000431,2.007616
4935000,0.0324,0.013523,0.002678,0.000431,2.163929
4936000,0.0324,0.013523,0.002678,0.000431,2.140306
4937000,0.0324,0.013523,0.002678,0.000431,1.976942
4938000,0.0324,0.013523,0.002678,0.000431,1.842137
4939000,0.0324,0.013523,0.002678,0.000431,2.056978
4940000,0.0324,0.013523,0.002678,0.000431,2.106458
4941000,0.0324,0.013523,0.002678,0.000431,1.876808
4942000,0.0324,0.013523,0.002678,0.000431,1.970478
4943000,0.0324,0.013523,0.002678,0.000431,2.183556
4944000,0.0324,0.013523,0.002678,0.000431,1.920763
4945000,0.0324,0.013523,0.002678,0.000431,1.910421
4946000,0.0324,0.013523,0.002678,0.000431,1.743883
4947000,0.0324,0.013523,0.002678,0.000431,1.962251
4948000,0.0324,0.013523,0.002678,0.000431,1.937805
4949000,0.0324,0.013523,0.002678,0.000431,1.905249
4950000,0.0324,0.013523,0.002678,0.000431,1.797123
4951000,0.0324,0.013523,0.002678,0.000431,2.051807
4952000,0.0324,0.013523,0.002678,0.000431,1.753285
4953000,0.0324,0.013523,0.002678,0.000431,1.670546
4954000,0.0324,0.013523,0.002678,0.000431,2.197307
4955000,0.0324,0.013523,0.002678,0.000431,2.202596
4956000,0.0324,0.013523,0.002678,0.000431,1.971888
4957000,0.0324,0.013523,0.002678,0.000431,2.125732
4958000,0.0324,0.013523,0.002678,0.000431,2.166632
4959000,0.0324,0.013523,0.002678,0.000431,2.067791
4960000,0.0324,0.013523,0.002678,0.000431,1.812872
4961000,0.0324,0.013523,0.002678,0.000431,2.215641
4962000,0.0324,0.013523,0.002678,0.000431,2.083775
4963000,0.0324,0.013523,0.002678,0.000431,2.158288
4964000,0.0324,0.013523,0.002678,0.000431,2.332817
4965000,0.0324,0.013523,0.002678,0.000431,2.111276
4966000,0.0324,0.013523,0.002678,0.000431,2.243495
4967000,0.0324,0.013523,0.002678,0.000431,1.979645
4968000,0.0324,0.013523,0.002678,0.000431,2.121854
4969000,0.0324,0.013523,0.002678,0.000431,2.035823
4970000,0.0324,0.013523,0.002678,0.000431,2.282750
4971000,0.0324,0.013523,0.002678,0.000431,2.152646
4972000,0.0324,0.013523,0.002678,0.000431,2.151471
4973000,0.0324,0.013523,0.002678,0.000431,2.259832
4974000,0.0324,0.013523,0.002678,0.000431,2.259127
4975000,0.0324,0.013523,0.002678,0.000431,2.196602
4976000,0.0324,0.013523,0.002678,0.000431,1.878218
4977000,0.0324,0.013523,0.002678,0.000431,2.192606
4978000,0.0324,0.013523,0.002678,0.000431,2.099641
4979000,0.0324,0.013523,0.002678,0.000431,2.072492
4980000,0.0324,0.013523,0.002678,0.000431,2.325295
4981000,0.0324,0.013523,0.002678,0.000431,2.282632
4982000,0.0324,0.013523,0.002678,0.000431,2.165104
4983000,0.0324,0.013523,0.002678,0.000431,2.210000
4984000,0.0324,0.013523,0.002678,0.000431,2.270057
4985000,0.0324,0.013523,0.002678,0.000431,2.210588
4986000,0.0324,0.013523,0.002678,0.000431,2.571634
4987000,0.0324,0.013523,0.002678,0.000431,2.278871
4988000,0.0324,0.013523,0.002678,0.000431,2.122206
4989000,0.0324,0.013523,0.002678,0.000431,2.202243
4990000,0.0324,0.013523,0.002678,0.000431,2.129963
4991000,0.0324,0.013523,0.002678,0.000431,2.210823
4992000,0.0324,0.013523,0.002678,0.000431,2.194369
4993000,0.0324,0.013523,0.002678,0.000431,2.246551
4994000,0.0324,0.013523,0.002678,0.000431,2.657077
4995000,0.0324,0.013523,0.002678,0.000431,2.392756
4996000,0.0324,0.013523,0.002678,0.000431,2.254426
4997000,0.0324,0.013523,0.002678,0.000431,2.313190
4998000,0.0324,0.013523,0.002678,0.000431,2.296736
4999000,0.0324,0.013523,0.002678,0.000431,2.468209
