Cycle,Area(mm^2),PeakDynamic(W),SubthresholdLeakage(W),GateLeakage(W),RunTimeDynamic(W)
7000000,0.0324,0.013523,0.002678,0.000431,1.648450
7001000,0.0324,0.013523,0.002678,0.000431,1.542322
7002000,0.0324,0.013523,0.002678,0.000431,1.674424
7003000,0.0324,0.013523,0.002678,0.000431,1.661378
7004000,0.0324,0.013523,0.002678,0.000431,1.612134
7005000,0.0324,0.013523,0.002678,0.000431,1.666902
7006000,0.0324,0.013523,0.002678,0.000431,1.511060
7007000,0.0324,0.013523,0.002678,0.000431,1.615542
7008000,0.0324,0.013523,0.002678,0.000431,1.608256
7009000,0.0324,0.013523,0.002678,0.000431,1.588041
7010000,0.0324,0.013523,0.002678,0.000431,1.578874
7011000,0.0324,0.013523,0.002678,0.000431,1.608726
7012000,0.0324,0.013523,0.002678,0.000431,1.532567
7013000,0.0324,0.013523,0.002678,0.000431,1.518582
7014000,0.0324,0.013523,0.002678,0.000431,1.504361
7015000,0.0324,0.013523,0.002678,0.000431,1.531040
7016000,0.0324,0.013523,0.002678,0.000431,1.534448
7017000,0.0324,0.013523,0.002678,0.000431,1.486967
7018000,0.0324,0.013523,0.002678,0.000431,1.522460
7019000,0.0324,0.013523,0.002678,0.000431,1.439250
7020000,0.0324,0.013523,0.002678,0.000431,1.482853
7021000,0.0324,0.013523,0.002678,0.000431,1.456174
7022000,0.0324,0.013523,0.002678,0.000431,1.439720
7023000,0.0324,0.013523,0.002678,0.000431,1.470043
7024000,0.0324,0.013523,0.002678,0.000431,1.397175
7025000,0.0324,0.013523,0.002678,0.000431,1.489082
7026000,0.0324,0.013523,0.002678,0.000431,1.538444
7027000,0.0324,0.013523,0.002678,0.000431,1.471100
7028000,0.0324,0.013523,0.002678,0.000431,1.526339
7029000,0.0324,0.013523,0.002678,0.000431,1.576053
7030000,0.0324,0.013523,0.002678,0.000431,1.535623
7031000,0.0324,0.013523,0.002678,0.000431,1.476036
7032000,0.0324,0.013523,0.002678,0.000431,1.514351
7033000,0.0324,0.013523,0.002678,0.000431,1.430553
7034000,0.0324,0.013523,0.002678,0.000431,1.411866
7035000,0.0324,0.013523,0.002678,0.000431,1.466047
7036000,0.0324,0.013523,0.002678,0.000431,1.443716
7037000,0.0324,0.013523,0.002678,0.000431,1.401289
7038000,0.0324,0.013523,0.002678,0.000431,1.303035
7039000,0.0324,0.013523,0.002678,0.000431,1.435254
7040000,0.0324,0.013523,0.002678,0.000431,1.566298
7041000,0.0324,0.013523,0.002678,0.000431,1.504831
7042000,0.0324,0.013523,0.002678,0.000431,1.522813
7043000,0.0324,0.013523,0.002678,0.000431,1.499895
7044000,0.0324,0.013523,0.002678,0.000431,1.517759
7045000,0.0324,0.013523,0.002678,0.000431,1.476389
7046000,0.0324,0.013523,0.002678,0.000431,1.555250
7047000,0.0324,0.013523,0.002678,0.000431,1.449475
7048000,0.0324,0.013523,0.002678,0.000431,1.445362
7049000,0.0324,0.013523,0.002678,0.000431,1.469572
7050000,0.0324,0.013523,0.002678,0.000431,1.441366
7051000,0.0324,0.013523,0.002678,0.000431,1.413864
7052000,0.0324,0.013523,0.002678,0.000431,1.370026
7053000,0.0324,0.013523,0.002678,0.000431,1.420328
7054000,0.0324,0.013523,0.002678,0.000431,1.495664
7055000,0.0324,0.013523,0.002678,0.000431,1.504126
7056000,0.0324,0.013523,0.002678,0.000431,1.501775
7057000,0.0324,0.013523,0.002678,0.000431,1.427380
7058000,0.0324,0.013523,0.002678,0.000431,1.516584
7059000,0.0324,0.013523,0.002678,0.000431,1.475214
7060000,0.0324,0.013523,0.002678,0.000431,1.440778
7061000,0.0324,0.013523,0.002678,0.000431,1.460758
7062000,0.0324,0.013523,0.002678,0.000431,1.432433
7063000,0.0324,0.013523,0.002678,0.000431,1.451473
7064000,0.0324,0.013523,0.002678,0.000431,1.368733
7065000,0.0324,0.013523,0.002678,0.000431,1.367558
7066000,0.0324,0.013523,0.002678,0.000431,1.435724
7067000,0.0324,0.013523,0.002678,0.000431,1.440425
7068000,0.0324,0.013523,0.002678,0.000431,1.427497
7069000,0.0324,0.013523,0.002678,0.000431,1.429495
7070000,0.0324,0.013523,0.002678,0.000431,1.365442
7071000,0.0324,0.013523,0.002678,0.000431,1.392356
7072000,0.0324,0.013523,0.002678,0.000431,1.389183
7073000,0.0324,0.013523,0.002678,0.000431,1.329596
7074000,0.0324,0.013523,0.002678,0.000431,1.354512
7075000,0.0324,0.013523,0.002678,0.000431,1.297159
7076000,0.0324,0.013523,0.002678,0.000431,1.295513
7077000,0.0324,0.013523,0.002678,0.000431,1.289754
7078000,0.0324,0.013523,0.002678,0.000431,1.283055
7079000,0.0324,0.013523,0.002678,0.000431,1.279647
7080000,0.0324,0.013523,0.002678,0.000431,1.292457
7081000,0.0324,0.013523,0.002678,0.000431,1.305503
7082000,0.0324,0.013523,0.002678,0.000431,1.323132
7083000,0.0324,0.013523,0.002678,0.000431,1.345345
7084000,0.0324,0.013523,0.002678,0.000431,1.314200
7085000,0.0324,0.013523,0.002678,0.000431,1.293515
7086000,0.0324,0.013523,0.002678,0.000431,1.336295
7087000,0.0324,0.013523,0.002678,0.000431,1.357803
7088000,0.0324,0.013523,0.002678,0.000431,1.447360
7089000,0.0324,0.013523,0.002678,0.000431,1.437487
7090000,0.0324,0.013523,0.002678,0.000431,1.488259
7091000,0.0324,0.013523,0.002678,0.000431,1.446537
7092000,0.0324,0.013523,0.002678,0.000431,1.466282
7093000,0.0324,0.013523,0.002678,0.000431,1.411278
7094000,0.0324,0.013523,0.002678,0.000431,1.444539
7095000,0.0324,0.013523,0.002678,0.000431,1.423149
7096000,0.0324,0.013523,0.002678,0.000431,1.431963
7097000,0.0324,0.013523,0.002678,0.000431,1.412101
7098000,0.0324,0.013523,0.002678,0.000431,1.358743
7099000,0.0324,0.013523,0.002678,0.000431,1.389301
7100000,0.0324,0.013523,0.002678,0.000431,1.321252
7101000,0.0324,0.013523,0.002678,0.000431,1.379428
7102000,0.0324,0.013523,0.002678,0.000431,1.311497
7103000,0.0324,0.013523,0.002678,0.000431,1.254848
7104000,0.0324,0.013523,0.002678,0.000431,1.267306
7105000,0.0324,0.013523,0.002678,0.000431,1.260020
7106000,0.0324,0.013523,0.002678,0.000431,1.243683
7107000,0.0324,0.013523,0.002678,0.000431,1.205839
7108000,0.0324,0.013523,0.002678,0.000431,1.211010
7109000,0.0324,0.013523,0.002678,0.000431,1.175634
7110000,0.0324,0.013523,0.002678,0.000431,1.203254
7111000,0.0324,0.013523,0.002678,0.000431,1.186565
7112000,0.0324,0.013523,0.002678,0.000431,1.169170
7113000,0.0324,0.013523,0.002678,0.000431,1.188915
7114000,0.0324,0.013523,0.002678,0.000431,1.232048
7115000,0.0324,0.013523,0.002678,0.000431,1.214536
7116000,0.0324,0.013523,0.002678,0.000431,1.240627
7117000,0.0324,0.013523,0.002678,0.000431,1.240745
7118000,0.0324,0.013523,0.002678,0.000431,1.254261
7119000,0.0324,0.013523,0.002678,0.000431,1.245681
7120000,0.0324,0.013523,0.002678,0.000431,1.208307
7121000,0.0324,0.013523,0.002678,0.000431,1.209247
7122000,0.0324,0.013523,0.002678,0.000431,1.194204
7123000,0.0324,0.013523,0.002678,0.000431,1.171756
7124000,0.0324,0.013523,0.002678,0.000431,1.183039
7125000,0.0324,0.013523,0.002678,0.000431,1.167407
7126000,0.0324,0.013523,0.002678,0.000431,1.153539
7127000,0.0324,0.013523,0.002678,0.000431,1.149191
7128000,0.0324,0.013523,0.002678,0.000431,1.127683
7129000,0.0324,0.013523,0.002678,0.000431,1.158593
7130000,0.0324,0.013523,0.002678,0.000431,1.124510
7131000,0.0324,0.013523,0.002678,0.000431,1.183979
7132000,0.0324,0.013523,0.002678,0.000431,1.173401
7133000,0.0324,0.013523,0.002678,0.000431,1.181628
7134000,0.0324,0.013523,0.002678,0.000431,1.139788
7135000,0.0324,0.013523,0.002678,0.000431,1.135675
7136000,0.0324,0.013523,0.002678,0.000431,1.126038
7137000,0.0324,0.013523,0.002678,0.000431,1.088899
7138000,0.0324,0.013523,0.002678,0.000431,1.123334
7139000,0.0324,0.013523,0.002678,0.000431,1.111346
7140000,0.0324,0.013523,0.002678,0.000431,1.112874
7141000,0.0324,0.013523,0.002678,0.000431,1.103237
7142000,0.0324,0.013523,0.002678,0.000431,1.090779
7143000,0.0324,0.013523,0.002678,0.000431,1.080084
7144000,0.0324,0.013523,0.002678,0.000431,1.092424
7145000,0.0324,0.013523,0.002678,0.000431,1.067508
7146000,0.0324,0.013523,0.002678,0.000431,1.044473
7147000,0.0324,0.013523,0.002678,0.000431,1.037656
7148000,0.0324,0.013523,0.002678,0.000431,1.009332
7149000,0.0324,0.013523,0.002678,0.000431,1.071975
7150000,0.0324,0.013523,0.002678,0.000431,1.080319
7151000,0.0324,0.013523,0.002678,0.000431,1.093952
7152000,0.0324,0.013523,0.002678,0.000431,1.111817
7153000,0.0324,0.013523,0.002678,0.000431,1.184802
7154000,0.0324,0.013523,0.002678,0.000431,1.256024
7155000,0.0324,0.013523,0.002678,0.000431,1.215476
7156000,0.0324,0.013523,0.002678,0.000431,1.228522
7157000,0.0324,0.013523,0.002678,0.000431,1.253085
7158000,0.0324,0.013523,0.002678,0.000431,1.226877
7159000,0.0324,0.013523,0.002678,0.000431,1.267071
7160000,0.0324,0.013523,0.002678,0.000431,1.250617
7161000,0.0324,0.013523,0.002678,0.000431,1.237572
7162000,0.0324,0.013523,0.002678,0.000431,1.246151
7163000,0.0324,0.013523,0.002678,0.000431,1.241215
7164000,0.0324,0.013523,0.002678,0.000431,1.224174
7165000,0.0324,0.013523,0.002678,0.000431,1.269422
7166000,0.0324,0.013523,0.002678,0.000431,1.216887
7167000,0.0324,0.013523,0.002678,0.000431,1.207014
7168000,0.0324,0.013523,0.002678,0.000431,1.211363
7169000,0.0324,0.013523,0.002678,0.000431,1.176105
7170000,0.0324,0.013523,0.002678,0.000431,1.193499
7171000,0.0324,0.013523,0.002678,0.000431,1.169405
7172000,0.0324,0.013523,0.002678,0.000431,1.189150
7173000,0.0324,0.013523,0.002678,0.000431,1.185977
7174000,0.0324,0.013523,0.002678,0.000431,1.240392
7175000,0.0324,0.013523,0.002678,0.000431,1.162001
7176000,0.0324,0.013523,0.002678,0.000431,1.187975
7177000,0.0324,0.013523,0.002678,0.000431,1.276003
7178000,0.0324,0.013523,0.002678,0.000431,1.193969
7179000,0.0324,0.013523,0.002678,0.000431,1.205369
7180000,0.0324,0.013523,0.002678,0.000431,1.143549
7181000,0.0324,0.013523,0.002678,0.000431,1.169876
7182000,0.0324,0.013523,0.002678,0.000431,1.134029
7183000,0.0324,0.013523,0.002678,0.000431,1.207720
7184000,0.0324,0.013523,0.002678,0.000431,1.208895
7185000,0.0324,0.013523,0.002678,0.000431,1.161296
7186000,0.0324,0.013523,0.002678,0.000431,1.276709
7187000,0.0324,0.013523,0.002678,0.000431,1.267659
7188000,0.0324,0.013523,0.002678,0.000431,1.232165
7189000,0.0324,0.013523,0.002678,0.000431,1.225584
7190000,0.0324,0.013523,0.002678,0.000431,1.268364
7191000,0.0324,0.013523,0.002678,0.000431,1.226759
7192000,0.0324,0.013523,0.002678,0.000431,1.319136
7193000,0.0324,0.013523,0.002678,0.000431,1.255789
7194000,0.0324,0.013523,0.002678,0.000431,1.338176
7195000,0.0324,0.013523,0.002678,0.000431,1.387890
7196000,0.0324,0.013523,0.002678,0.000431,1.367911
7197000,0.0324,0.013523,0.002678,0.000431,1.399996
7198000,0.0324,0.013523,0.002678,0.000431,1.347813
7199000,0.0324,0.013523,0.002678,0.000431,1.378606
7200000,0.0324,0.013523,0.002678,0.000431,1.371201
7201000,0.0324,0.013523,0.002678,0.000431,1.352867
7202000,0.0324,0.013523,0.002678,0.000431,1.367440
7203000,0.0324,0.013523,0.002678,0.000431,1.412101
7204000,0.0324,0.013523,0.002678,0.000431,1.389888
7205000,0.0324,0.013523,0.002678,0.000431,1.374845
7206000,0.0324,0.013523,0.002678,0.000431,1.368733
7207000,0.0324,0.013523,0.002678,0.000431,1.381309
7208000,0.0324,0.013523,0.002678,0.000431,1.311379
7209000,0.0324,0.013523,0.002678,0.000431,1.266366
7210000,0.0324,0.013523,0.002678,0.000431,1.358038
7211000,0.0324,0.013523,0.002678,0.000431,1.345580
7212000,0.0324,0.013523,0.002678,0.000431,1.291870
7213000,0.0324,0.013523,0.002678,0.000431,1.351809
7214000,0.0324,0.013523,0.002678,0.000431,1.407870
7215000,0.0324,0.013523,0.002678,0.000431,1.467339
7216000,0.0324,0.013523,0.002678,0.000431,1.496721
7217000,0.0324,0.013523,0.002678,0.000431,1.447712
7218000,0.0324,0.013523,0.002678,0.000431,1.519287
7219000,0.0324,0.013523,0.002678,0.000431,1.512940
7220000,0.0324,0.013523,0.002678,0.000431,1.498719
7221000,0.0324,0.013523,0.002678,0.000431,1.538209
7222000,0.0324,0.013523,0.002678,0.000431,1.497897
7223000,0.0324,0.013523,0.002678,0.000431,1.552547
7224000,0.0324,0.013523,0.002678,0.000431,1.489787
7225000,0.0324,0.013523,0.002678,0.000431,1.662084
7226000,0.0324,0.013523,0.002678,0.000431,1.647510
7227000,0.0324,0.013523,0.002678,0.000431,1.580989
7228000,0.0324,0.013523,0.002678,0.000431,1.635405
7229000,0.0324,0.013523,0.002678,0.000431,1.654327
7230000,0.0324,0.013523,0.002678,0.000431,1.641399
7231000,0.0324,0.013523,0.002678,0.000431,1.659145
7232000,0.0324,0.013523,0.002678,0.000431,1.636227
7233000,0.0324,0.013523,0.002678,0.000431,1.631996
7234000,0.0324,0.013523,0.002678,0.000431,1.645277
7235000,0.0324,0.013523,0.002678,0.000431,1.610371
7236000,0.0324,0.013523,0.002678,0.000431,1.501423
7237000,0.0324,0.013523,0.002678,0.000431,1.580637
7238000,0.0324,0.013523,0.002678,0.000431,1.582517
7239000,0.0324,0.013523,0.002678,0.000431,1.586395
7240000,0.0324,0.013523,0.002678,0.000431,1.575583
7241000,0.0324,0.013523,0.002678,0.000431,1.637168
7242000,0.0324,0.013523,0.002678,0.000431,1.542557
7243000,0.0324,0.013523,0.002678,0.000431,1.567591
7244000,0.0324,0.013523,0.002678,0.000431,1.562185
7245000,0.0324,0.013523,0.002678,0.000431,1.515173
7246000,0.0324,0.013523,0.002678,0.000431,1.533978
7247000,0.0324,0.013523,0.002678,0.000431,1.495311
7248000,0.0324,0.013523,0.002678,0.000431,1.419153
7249000,0.0324,0.013523,0.002678,0.000431,1.461580
7250000,0.0324,0.013523,0.002678,0.000431,1.534918
7251000,0.0324,0.013523,0.002678,0.000431,1.497779
7252000,0.0324,0.013523,0.002678,0.000431,1.494841
7253000,0.0324,0.013523,0.002678,0.000431,1.456997
7254000,0.0324,0.013523,0.002678,0.000431,1.556191
7255000,0.0324,0.013523,0.002678,0.000431,1.604847
7256000,0.0324,0.013523,0.002678,0.000431,1.535388
7257000,0.0324,0.013523,0.002678,0.000431,1.540677
7258000,0.0324,0.013523,0.002678,0.000431,1.704981
7259000,0.0324,0.013523,0.002678,0.000431,1.676422
7260000,0.0324,0.013523,0.002678,0.000431,1.588041
7261000,0.0324,0.013523,0.002678,0.000431,1.555250
7262000,0.0324,0.013523,0.002678,0.000431,1.562537
7263000,0.0324,0.013523,0.002678,0.000431,1.620596
7264000,0.0324,0.013523,0.002678,0.000431,1.653739
7265000,0.0324,0.013523,0.002678,0.000431,1.659851
7266000,0.0324,0.013523,0.002678,0.000431,1.690995
7267000,0.0324,0.013523,0.002678,0.000431,1.632702
7268000,0.0324,0.013523,0.002678,0.000431,1.551019
7269000,0.0324,0.013523,0.002678,0.000431,1.566063
7270000,0.0324,0.013523,0.002678,0.000431,1.645512
7271000,0.0324,0.013523,0.002678,0.000431,1.567708
7272000,0.0324,0.013523,0.002678,0.000431,1.653857
7273000,0.0324,0.013523,0.002678,0.000431,1.698400
7274000,0.0324,0.013523,0.002678,0.000431,1.741885
7275000,0.0324,0.013523,0.002678,0.000431,1.656560
7276000,0.0324,0.013523,0.002678,0.000431,1.791012
7277000,0.0324,0.013523,0.002678,0.000431,1.839551
7278000,0.0324,0.013523,0.002678,0.000431,1.774323
7279000,0.0324,0.013523,0.002678,0.000431,1.803587
7280000,0.0324,0.013523,0.002678,0.000431,1.794068
7281000,0.0324,0.013523,0.002678,0.000431,1.756694
7282000,0.0324,0.013523,0.002678,0.000431,1.860236
7283000,0.0324,0.013523,0.002678,0.000431,1.732836
7284000,0.0324,0.013523,0.002678,0.000431,1.650096
7285000,0.0324,0.013523,0.002678,0.000431,1.762100
7286000,0.0324,0.013523,0.002678,0.000431,1.650213
7287000,0.0324,0.013523,0.002678,0.000431,1.741533
7288000,0.0324,0.013523,0.002678,0.000431,1.678420
7289000,0.0324,0.013523,0.002678,0.000431,1.805703
7290000,0.0324,0.013523,0.002678,0.000431,1.830031
7291000,0.0324,0.013523,0.002678,0.000431,1.813695
7292000,0.0324,0.013523,0.002678,0.000431,1.732600
7293000,0.0324,0.013523,0.002678,0.000431,1.812872
7294000,0.0324,0.013523,0.002678,0.000431,1.771502
7295000,0.0324,0.013523,0.002678,0.000431,1.871636
7296000,0.0324,0.013523,0.002678,0.000431,1.853067
7297000,0.0324,0.013523,0.002678,0.000431,1.745764
7298000,0.0324,0.013523,0.002678,0.000431,1.783020
7299000,0.0324,0.013523,0.002678,0.000431,1.791247
7300000,0.0324,0.013523,0.002678,0.000431,1.878335
7301000,0.0324,0.013523,0.002678,0.000431,1.920058
7302000,0.0324,0.013523,0.002678,0.000431,1.952026
7303000,0.0324,0.013523,0.002678,0.000431,1.898080
7304000,0.0324,0.013523,0.002678,0.000431,1.922879
7305000,0.0324,0.013523,0.002678,0.000431,1.818984
7306000,0.0324,0.013523,0.002678,0.000431,1.886915
7307000,0.0324,0.013523,0.002678,0.000431,1.771150
7308000,0.0324,0.013523,0.002678,0.000431,1.757869
7309000,0.0324,0.013523,0.002678,0.000431,1.745646
7310000,0.0324,0.013523,0.002678,0.000431,1.723786
7311000,0.0324,0.013523,0.002678,0.000431,1.612839
7312000,0.0324,0.013523,0.002678,0.000431,1.720260
7313000,0.0324,0.013523,0.002678,0.000431,1.770092
7314000,0.0324,0.013523,0.002678,0.000431,1.773970
7315000,0.0324,0.013523,0.002678,0.000431,1.728134
7316000,0.0324,0.013523,0.002678,0.000431,1.666902
7317000,0.0324,0.013523,0.002678,0.000431,1.760337
7318000,0.0324,0.013523,0.002678,0.000431,1.715089
7319000,0.0324,0.013523,0.002678,0.000431,1.739770
7320000,0.0324,0.013523,0.002678,0.000431,1.706979
7321000,0.0324,0.013523,0.002678,0.000431,1.702278
7322000,0.0324,0.013523,0.002678,0.000431,1.772678
7323000,0.0324,0.013523,0.002678,0.000431,1.744471
7324000,0.0324,0.013523,0.002678,0.000431,1.651153
7325000,0.0324,0.013523,0.002678,0.000431,1.713796
7326000,0.0324,0.013523,0.002678,0.000431,1.674071
7327000,0.0324,0.013523,0.002678,0.000431,1.727077
7328000,0.0324,0.013523,0.002678,0.000431,1.677715
7329000,0.0324,0.013523,0.002678,0.000431,1.758927
7330000,0.0324,0.013523,0.002678,0.000431,1.783490
7331000,0.0324,0.013523,0.002678,0.000431,1.745881
7332000,0.0324,0.013523,0.002678,0.000431,1.734363
7333000,0.0324,0.013523,0.002678,0.000431,1.679713
7334000,0.0324,0.013523,0.002678,0.000431,1.745881
7335000,0.0324,0.013523,0.002678,0.000431,1.744471
7336000,0.0324,0.013523,0.002678,0.000431,1.653739
7337000,0.0324,0.013523,0.002678,0.000431,1.700280
7338000,0.0324,0.013523,0.002678,0.000431,1.720613
7339000,0.0324,0.013523,0.002678,0.000431,1.882096
7340000,0.0324,0.013523,0.002678,0.000431,1.779142
7341000,0.0324,0.013523,0.002678,0.000431,1.881039
7342000,0.0324,0.013523,0.002678,0.000431,1.874104
7343000,0.0324,0.013523,0.002678,0.000431,1.850129
7344000,0.0324,0.013523,0.002678,0.000431,1.893144
7345000,0.0324,0.013523,0.002678,0.000431,1.904779
7346000,0.0324,0.013523,0.002678,0.000431,1.871871
7347000,0.0324,0.013523,0.002678,0.000431,1.834850
7348000,0.0324,0.013523,0.002678,0.000431,1.932163
7349000,0.0324,0.013523,0.002678,0.000431,1.981995
7350000,0.0324,0.013523,0.002678,0.000431,2.083657
7351000,0.0324,0.013523,0.002678,0.000431,2.054158
7352000,0.0324,0.013523,0.002678,0.000431,1.982818
7353000,0.0324,0.013523,0.002678,0.000431,1.988459
7354000,0.0324,0.013523,0.002678,0.000431,2.133489
7355000,0.0324,0.013523,0.002678,0.000431,1.990927
7356000,0.0324,0.013523,0.002678,0.000431,2.136427
7357000,0.0324,0.013523,0.002678,0.000431,2.136427
7358000,0.0324,0.013523,0.002678,0.000431,2.151588
7359000,0.0324,0.013523,0.002678,0.000431,2.171803
7360000,0.0324,0.013523,0.002678,0.000431,2.153586
7361000,0.0324,0.013523,0.002678,0.000431,2.169570
7362000,0.0324,0.013523,0.002678,0.000431,2.187317
7363000,0.0324,0.013523,0.002678,0.000431,2.037351
7364000,0.0324,0.013523,0.002678,0.000431,2.113862
7365000,0.0324,0.013523,0.002678,0.000431,2.092472
7366000,0.0324,0.013523,0.002678,0.000431,2.204124
7367000,0.0324,0.013523,0.002678,0.000431,2.045813
7368000,0.0324,0.013523,0.002678,0.000431,2.032297
7369000,0.0324,0.013523,0.002678,0.000431,2.055450
7370000,0.0324,0.013523,0.002678,0.000431,1.922056
7371000,0.0324,0.013523,0.002678,0.000431,2.063090
7372000,0.0324,0.013523,0.002678,0.000431,2.009379
7373000,0.0324,0.013523,0.002678,0.000431,2.268294
7374000,0.0324,0.013523,0.002678,0.000431,2.121266
7375000,0.0324,0.013523,0.002678,0.000431,2.151941
7376000,0.0324,0.013523,0.002678,0.000431,2.157112
7377000,0.0324,0.013523,0.002678,0.000431,2.139130
7378000,0.0324,0.013523,0.002678,0.000431,2.208002
7379000,0.0324,0.013523,0.002678,0.000431,2.128200
7380000,0.0324,0.013523,0.002678,0.000431,2.248667
7381000,0.0324,0.013523,0.002678,0.000431,2.137250
7382000,0.0324,0.013523,0.002678,0.000431,2.219050
7383000,0.0324,0.013523,0.002678,0.000431,2.096233
7384000,0.0324,0.013523,0.002678,0.000431,2.051102
7385000,0.0324,0.013523,0.002678,0.000431,1.971300
7386000,0.0324,0.013523,0.002678,0.000431,2.077781
7387000,0.0324,0.013523,0.002678,0.000431,1.895965
7388000,0.0324,0.013523,0.002678,0.000431,1.995158
7389000,0.0324,0.013523,0.002678,0.000431,2.148063
7390000,0.0324,0.013523,0.002678,0.000431,2.080484
7391000,0.0324,0.013523,0.002678,0.000431,2.201303
7392000,0.0324,0.013523,0.002678,0.000431,2.280517
7393000,0.0324,0.013523,0.002678,0.000431,2.118563
7394000,0.0324,0.013523,0.002678,0.000431,2.162871
7395000,0.0324,0.013523,0.002678,0.000431,2.299791
7396000,0.0324,0.013523,0.002678,0.000431,2.296031
7397000,0.0324,0.013523,0.002678,0.000431,2.181793
7398000,0.0324,0.013523,0.002678,0.000431,2.416144
7399000,0.0324,0.013523,0.002678,0.000431,2.231743
7400000,0.0324,0.013523,0.002678,0.000431,2.287451
7401000,0.0324,0.013523,0.002678,0.000431,2.215759
7402000,0.0324,0.013523,0.002678,0.000431,2.270292
7403000,0.0324,0.013523,0.002678,0.000431,2.170746
7404000,0.0324,0.013523,0.002678,0.000431,2.071199
7405000,0.0324,0.013523,0.002678,0.000431,2.203066
7406000,0.0324,0.013523,0.002678,0.000431,2.204476
7407000,0.0324,0.013523,0.002678,0.000431,2.165927
7408000,0.0324,0.013523,0.002678,0.000431,2.338693
7409000,0.0324,0.013523,0.002678,0.000431,2.167220
7410000,0.0324,0.013523,0.002678,0.000431,2.173919
7411000,0.0324,0.013523,0.002678,0.000431,2.199775
7412000,0.0324,0.013523,0.002678,0.000431,2.133019
7413000,0.0324,0.013523,0.002678,0.000431,2.124322
7414000,0.0324,0.013523,0.002678,0.000431,1.967422
7415000,0.0324,0.013523,0.002678,0.000431,2.199187
7416000,0.0324,0.013523,0.002678,0.000431,2.103637
7417000,0.0324,0.013523,0.002678,0.000431,2.190608
7418000,0.0324,0.013523,0.002678,0.000431,2.063325
7419000,0.0324,0.013523,0.002678,0.000431,2.052277
7420000,0.0324,0.013523,0.002678,0.000431,2.142539
7421000,0.0324,0.013523,0.002678,0.000431,2.094352
7422000,0.0324,0.013523,0.002678,0.000431,2.043815
7423000,0.0324,0.013523,0.002678,0.000431,1.933221
7424000,0.0324,0.013523,0.002678,0.000431,2.223516
7425000,0.0324,0.013523,0.002678,0.000431,2.163694
7426000,0.0324,0.013523,0.002678,0.000431,2.161343
7427000,0.0324,0.013523,0.002678,0.000431,2.206592
7428000,0.0324,0.013523,0.002678,0.000431,2.135487
7429000,0.0324,0.013523,0.002678,0.000431,2.123852
7430000,0.0324,0.013523,0.002678,0.000431,2.162989
7431000,0.0324,0.013523,0.002678,0.000431,2.285336
7432000,0.0324,0.013523,0.002678,0.000431,2.253955
7433000,0.0324,0.013523,0.002678,0.000431,2.219285
7434000,0.0324,0.013523,0.002678,0.000431,2.107868
7435000,0.0324,0.013523,0.002678,0.000431,2.246904
7436000,0.0324,0.013523,0.002678,0.000431,2.031122
7437000,0.0324,0.013523,0.002678,0.000431,2.219872
7438000,0.0324,0.013523,0.002678,0.000431,2.176739
7439000,0.0324,0.013523,0.002678,0.000431,2.013023
7440000,0.0324,0.013523,0.002678,0.000431,2.018076
7441000,0.0324,0.013523,0.002678,0.000431,2.184731
7442000,0.0324,0.013523,0.002678,0.000431,2.121501
7443000,0.0324,0.013523,0.002678,0.000431,2.113039
7444000,0.0324,0.013523,0.002678,0.000431,2.130081
7445000,0.0324,0.013523,0.002678,0.000431,2.076958
7446000,0.0324,0.013523,0.002678,0.000431,2.172156
7447000,0.0324,0.013523,0.002678,0.000431,2.154174
7448000,0.0324,0.013523,0.002678,0.000431,2.029712
7449000,0.0324,0.013523,0.002678,0.000431,2.190138
7450000,0.0324,0.013523,0.002678,0.000431,2.035823
7451000,0.0324,0.013523,0.002678,0.000431,2.039231
7452000,0.0324,0.013523,0.002678,0.000431,2.127730
7453000,0.0324,0.013523,0.002678,0.000431,1.870814
7454000,0.0324,0.013523,0.002678,0.000431,2.006559
7455000,0.0324,0.013523,0.002678,0.000431,2.149826
7456000,0.0324,0.013523,0.002678,0.000431,2.108103
7457000,0.0324,0.013523,0.002678,0.000431,2.102462
7458000,0.0324,0.013523,0.002678,0.000431,2.090474
7459000,0.0324,0.013523,0.002678,0.000431,2.046048
7460000,0.0324,0.013523,0.002678,0.000431,1.929225
7461000,0.0324,0.013523,0.002678,0.000431,1.922879
7462000,0.0324,0.013523,0.002678,0.000431,1.882919
7463000,0.0324,0.013523,0.002678,0.000431,2.096115
7464000,0.0324,0.013523,0.002678,0.000431,2.239500
7465000,0.0324,0.013523,0.002678,0.000431,2.242085
7466000,0.0324,0.013523,0.002678,0.000431,2.127143
7467000,0.0324,0.013523,0.002678,0.000431,2.232565
7468000,0.0324,0.013523,0.002678,0.000431,2.098231
7469000,0.0324,0.013523,0.002678,0.000431,2.181206
7470000,0.0324,0.013523,0.002678,0.000431,2.175329
7471000,0.0324,0.013523,0.002678,0.000431,2.091532
7472000,0.0324,0.013523,0.002678,0.000431,2.129141
7473000,0.0324,0.013523,0.002678,0.000431,1.958607
7474000,0.0324,0.013523,0.002678,0.000431,2.155702
7475000,0.0324,0.013523,0.002678,0.000431,2.227864
7476000,0.0324,0.013523,0.002678,0.000431,2.154879
7477000,0.0324,0.013523,0.002678,0.000431,2.160873
7478000,0.0324,0.013523,0.002678,0.000431,2.145124
7479000,0.0324,0.013523,0.002678,0.000431,2.064618
7480000,0.0324,0.013523,0.002678,0.000431,2.135134
7481000,0.0324,0.013523,0.002678,0.000431,2.122206
7482000,0.0324,0.013523,0.002678,0.000431,2.055920
7483000,0.0324,0.013523,0.002678,0.000431,2.080249
7484000,0.0324,0.013523,0.002678,0.000431,2.054745
7485000,0.0324,0.013523,0.002678,0.000431,2.075313
7486000,0.0324,0.013523,0.002678,0.000431,2.146535
7487000,0.0324,0.013523,0.002678,0.000431,2.053335
7488000,0.0324,0.013523,0.002678,0.000431,1.981290
7489000,0.0324,0.013523,0.002678,0.000431,2.078368
7490000,0.0324,0.013523,0.002678,0.000431,2.021250
7491000,0.0324,0.013523,0.002678,0.000431,2.115390
7492000,0.0324,0.013523,0.002678,0.000431,2.130786
7493000,0.0324,0.013523,0.002678,0.000431,1.983523
7494000,0.0324,0.013523,0.002678,0.000431,2.221283
7495000,0.0324,0.013523,0.002678,0.000431,2.122441
7496000,0.0324,0.013523,0.002678,0.000431,2.084950
7497000,0.0324,0.013523,0.002678,0.000431,1.996804
7498000,0.0324,0.013523,0.002678,0.000431,1.978469
7499000,0.0324,0.013523,0.002678,0.000431,1.850599
7500000,0.0324,0.013523,0.002678,0.000431,2.062267
7501000,0.0324,0.013523,0.002678,0.000431,1.999389
7502000,0.0324,0.013523,0.002678,0.000431,1.968009
7503000,0.0324,0.013523,0.002678,0.000431,2.232448
7504000,0.0324,0.013523,0.002678,0.000431,2.181911
7505000,0.0324,0.013523,0.002678,0.000431,1.974591
7506000,0.0324,0.013523,0.002678,0.000431,1.987637
7507000,0.0324,0.013523,0.002678,0.000431,1.997039
7508000,0.0324,0.013523,0.002678,0.000431,2.030769
7509000,0.0324,0.013523,0.002678,0.000431,1.919705
7510000,0.0324,0.013523,0.002678,0.000431,2.282632
7511000,0.0324,0.013523,0.002678,0.000431,2.115742
7512000,0.0324,0.013523,0.002678,0.000431,2.285806
7513000,0.0324,0.013523,0.002678,0.000431,2.163929
7514000,0.0324,0.013523,0.002678,0.000431,2.181088
7515000,0.0324,0.013523,0.002678,0.000431,2.143714
7516000,0.0324,0.013523,0.002678,0.000431,2.193899
7517000,0.0324,0.013523,0.002678,0.000431,2.130551
7518000,0.0324,0.013523,0.002678,0.000431,2.189080
7519000,0.0324,0.013523,0.002678,0.000431,2.037469
7520000,0.0324,0.013523,0.002678,0.000431,1.980350
7521000,0.0324,0.013523,0.002678,0.000431,2.179208
7522000,0.0324,0.013523,0.002678,0.000431,2.141246
7523000,0.0324,0.013523,0.002678,0.000431,2.165339
7524000,0.0324,0.013523,0.002678,0.000431,2.096585
7525000,0.0324,0.013523,0.002678,0.000431,2.081189
7526000,0.0324,0.013523,0.002678,0.000431,2.114802
7527000,0.0324,0.013523,0.002678,0.000431,2.040759
7528000,0.0324,0.013523,0.002678,0.000431,2.116565
7529000,0.0324,0.013523,0.002678,0.000431,2.170863
7530000,0.0324,0.013523,0.002678,0.000431,1.999272
7531000,0.0324,0.013523,0.002678,0.000431,2.203183
7532000,0.0324,0.013523,0.002678,0.000431,2.146770
7533000,0.0324,0.013523,0.002678,0.000431,2.035236
7534000,0.0324,0.013523,0.002678,0.000431,2.226336
7535000,0.0324,0.013523,0.002678,0.000431,1.983053
7536000,0.0324,0.013523,0.002678,0.000431,2.024776
7537000,0.0324,0.013523,0.002678,0.000431,2.133254
7538000,0.0324,0.013523,0.002678,0.000431,2.051102
7539000,0.0324,0.013523,0.002678,0.000431,2.201655
7540000,0.0324,0.013523,0.002678,0.000431,2.152411
7541000,0.0324,0.013523,0.002678,0.000431,2.159580
7542000,0.0324,0.013523,0.002678,0.000431,2.089886
7543000,0.0324,0.013523,0.002678,0.000431,2.113157
7544000,0.0324,0.013523,0.002678,0.000431,2.067673
7545000,0.0324,0.013523,0.002678,0.000431,2.125850
7546000,0.0324,0.013523,0.002678,0.000431,2.148415
7547000,0.0324,0.013523,0.002678,0.000431,2.221283
7548000,0.0324,0.013523,0.002678,0.000431,2.110219
7549000,0.0324,0.013523,0.002678,0.000431,2.149238
7550000,0.0324,0.013523,0.002678,0.000431,2.152999
7551000,0.0324,0.013523,0.002678,0.000431,2.160873
7552000,0.0324,0.013523,0.002678,0.000431,2.062032
7553000,0.0324,0.013523,0.002678,0.000431,1.935102
7554000,0.0324,0.013523,0.002678,0.000431,1.961428
7555000,0.0324,0.013523,0.002678,0.000431,2.166867
7556000,0.0324,0.013523,0.002678,0.000431,2.078956
7557000,0.0324,0.013523,0.002678,0.000431,2.047694
7558000,0.0324,0.013523,0.002678,0.000431,2.232213
7559000,0.0324,0.013523,0.002678,0.000431,2.166750
7560000,0.0324,0.013523,0.002678,0.000431,2.094352
7561000,0.0324,0.013523,0.002678,0.000431,2.204829
7562000,0.0324,0.013523,0.002678,0.000431,2.158052
7563000,0.0324,0.013523,0.002678,0.000431,2.076605
7564000,0.0324,0.013523,0.002678,0.000431,2.191078
7565000,0.0324,0.013523,0.002678,0.000431,2.026186
7566000,0.0324,0.013523,0.002678,0.000431,2.048516
7567000,0.0324,0.013523,0.002678,0.000431,1.981055
7568000,0.0324,0.013523,0.002678,0.000431,2.047106
7569000,0.0324,0.013523,0.002678,0.000431,2.009732
7570000,0.0324,0.013523,0.002678,0.000431,2.090356
7571000,0.0324,0.013523,0.002678,0.000431,2.119268
7572000,0.0324,0.013523,0.002678,0.000431,2.171216
7573000,0.0324,0.013523,0.002678,0.000431,2.165222
7574000,0.0324,0.013523,0.002678,0.000431,2.117623
7575000,0.0324,0.013523,0.002678,0.000431,2.162989
7576000,0.0324,0.013523,0.002678,0.000431,2.074137
7577000,0.0324,0.013523,0.002678,0.000431,2.120796
7578000,0.0324,0.013523,0.002678,0.000431,2.032297
7579000,0.0324,0.013523,0.002678,0.000431,2.071904
7580000,0.0324,0.013523,0.002678,0.000431,2.075548
7581000,0.0324,0.013523,0.002678,0.000431,2.007381
7582000,0.0324,0.013523,0.002678,0.000431,2.097761
7583000,0.0324,0.013523,0.002678,0.000431,2.168160
7584000,0.0324,0.013523,0.002678,0.000431,2.070024
7585000,0.0324,0.013523,0.002678,0.000431,2.093647
7586000,0.0324,0.013523,0.002678,0.000431,2.111511
7587000,0.0324,0.013523,0.002678,0.000431,2.139836
7588000,0.0324,0.013523,0.002678,0.000431,2.031827
7589000,0.0324,0.013523,0.002678,0.000431,2.083775
7590000,0.0324,0.013523,0.002678,0.000431,2.090591
7591000,0.0324,0.013523,0.002678,0.000431,1.991398
7592000,0.0324,0.013523,0.002678,0.000431,2.111746
7593000,0.0324,0.013523,0.002678,0.000431,2.106458
7594000,0.0324,0.013523,0.002678,0.000431,2.101756
7595000,0.0324,0.013523,0.002678,0.000431,2.164869
7596000,0.0324,0.013523,0.002678,0.000431,2.147122
7597000,0.0324,0.013523,0.002678,0.000431,2.135840
7598000,0.0324,0.013523,0.002678,0.000431,2.144067
7599000,0.0324,0.013523,0.002678,0.000431,2.100229
7600000,0.0324,0.013523,0.002678,0.000431,2.077781
7601000,0.0324,0.013523,0.002678,0.000431,2.000330
7602000,0.0324,0.013523,0.002678,0.000431,2.136310
7603000,0.0324,0.013523,0.002678,0.000431,2.067556
7604000,0.0324,0.013523,0.002678,0.000431,2.091767
7605000,0.0324,0.013523,0.002678,0.000431,2.005031
7606000,0.0324,0.013523,0.002678,0.000431,1.978234
7607000,0.0324,0.013523,0.002678,0.000431,1.982700
7608000,0.0324,0.013523,0.002678,0.000431,2.044638
7609000,0.0324,0.013523,0.002678,0.000431,2.099994
7610000,0.0324,0.013523,0.002678,0.000431,2.045696
7611000,0.0324,0.013523,0.002678,0.000431,2.000682
7612000,0.0324,0.013523,0.002678,0.000431,2.035471
7613000,0.0324,0.013523,0.002678,0.000431,2.065793
7614000,0.0324,0.013523,0.002678,0.000431,1.852949
7615000,0.0324,0.013523,0.002678,0.000431,1.962838
7616000,0.0324,0.013523,0.002678,0.000431,1.990222
7617000,0.0324,0.013523,0.002678,0.000431,2.091767
7618000,0.0324,0.013523,0.002678,0.000431,2.056861
7619000,0.0324,0.013523,0.002678,0.000431,2.022425
7620000,0.0324,0.013523,0.002678,0.000431,2.005031
7621000,0.0324,0.013523,0.002678,0.000431,1.939685
7622000,0.0324,0.013523,0.002678,0.000431,1.975414
7623000,0.0324,0.013523,0.002678,0.000431,2.095645
7624000,0.0324,0.013523,0.002678,0.000431,2.084245
7625000,0.0324,0.013523,0.002678,0.000431,2.060152
7626000,0.0324,0.013523,0.002678,0.000431,1.931693
7627000,0.0324,0.013523,0.002678,0.000431,1.910068
7628000,0.0324,0.013523,0.002678,0.000431,1.919470
7629000,0.0324,0.013523,0.002678,0.000431,1.975531
7630000,0.0324,0.013523,0.002678,0.000431,1.947912
7631000,0.0324,0.013523,0.002678,0.000431,1.986579
7632000,0.0324,0.013523,0.002678,0.000431,1.905484
7633000,0.0324,0.013523,0.002678,0.000431,1.807701
7634000,0.0324,0.013523,0.002678,0.000431,1.905132
7635000,0.0324,0.013523,0.002678,0.000431,2.045460
7636000,0.0324,0.013523,0.002678,0.000431,1.881156
7637000,0.0324,0.013523,0.002678,0.000431,1.979880
7638000,0.0324,0.013523,0.002678,0.000431,1.882096
7639000,0.0324,0.013523,0.002678,0.000431,1.941801
7640000,0.0324,0.013523,0.002678,0.000431,1.836025
7641000,0.0324,0.013523,0.002678,0.000431,1.927110
7642000,0.0324,0.013523,0.002678,0.000431,1.922173
7643000,0.0324,0.013523,0.002678,0.000431,1.923349
7644000,0.0324,0.013523,0.002678,0.000431,1.834380
7645000,0.0324,0.013523,0.002678,0.000431,1.843312
7646000,0.0324,0.013523,0.002678,0.000431,1.852479
7647000,0.0324,0.013523,0.002678,0.000431,1.818984
7648000,0.0324,0.013523,0.002678,0.000431,1.786193
7649000,0.0324,0.013523,0.002678,0.000431,1.767154
7650000,0.0324,0.013523,0.002678,0.000431,1.859883
7651000,0.0324,0.013523,0.002678,0.000431,1.776791
7652000,0.0324,0.013523,0.002678,0.000431,1.800767
7653000,0.0324,0.013523,0.002678,0.000431,1.742590
7654000,0.0324,0.013523,0.002678,0.000431,1.747644
7655000,0.0324,0.013523,0.002678,0.000431,1.935337
7656000,0.0324,0.013523,0.002678,0.000431,1.840609
7657000,0.0324,0.013523,0.002678,0.000431,1.818161
7658000,0.0324,0.013523,0.002678,0.000431,1.769269
7659000,0.0324,0.013523,0.002678,0.000431,1.866818
7660000,0.0324,0.013523,0.002678,0.000431,1.775028
7661000,0.0324,0.013523,0.002678,0.000431,1.695227
7662000,0.0324,0.013523,0.002678,0.000431,1.803705
7663000,0.0324,0.013523,0.002678,0.000431,1.761747
7664000,0.0324,0.013523,0.002678,0.000431,1.696402
7665000,0.0324,0.013523,0.002678,0.000431,1.833322
7666000,0.0324,0.013523,0.002678,0.000431,1.705099
7667000,0.0324,0.013523,0.002678,0.000431,1.910421
7668000,0.0324,0.013523,0.002678,0.000431,1.859061
7669000,0.0324,0.013523,0.002678,0.000431,1.798886
7670000,0.0324,0.013523,0.002678,0.000431,1.763628
7671000,0.0324,0.013523,0.002678,0.000431,1.803940
7672000,0.0324,0.013523,0.002678,0.000431,1.786193
7673000,0.0324,0.013523,0.002678,0.000431,1.712973
7674000,0.0324,0.013523,0.002678,0.000431,1.780905
7675000,0.0324,0.013523,0.002678,0.000431,1.828621
7676000,0.0324,0.013523,0.002678,0.000431,1.812755
7677000,0.0324,0.013523,0.002678,0.000431,1.810169
7678000,0.0324,0.013523,0.002678,0.000431,1.948617
7679000,0.0324,0.013523,0.002678,0.000431,1.790542
7680000,0.0324,0.013523,0.002678,0.000431,1.834497
7681000,0.0324,0.013523,0.002678,0.000431,1.851892
7682000,0.0324,0.013523,0.002678,0.000431,1.862117
7683000,0.0324,0.013523,0.002678,0.000431,1.781375
7684000,0.0324,0.013523,0.002678,0.000431,1.831677
7685000,0.0324,0.013523,0.002678,0.000431,1.808289
7686000,0.0324,0.013523,0.002678,0.000431,1.734834
7687000,0.0324,0.013523,0.002678,0.000431,1.772443
7688000,0.0324,0.013523,0.002678,0.000431,1.715794
7689000,0.0324,0.013523,0.002678,0.000431,1.801942
7690000,0.0324,0.013523,0.002678,0.000431,1.755048
7691000,0.0324,0.013523,0.002678,0.000431,1.755048
7692000,0.0324,0.013523,0.002678,0.000431,1.679243
7693000,0.0324,0.013523,0.002678,0.000431,1.732365
7694000,0.0324,0.013523,0.002678,0.000431,1.735069
7695000,0.0324,0.013523,0.002678,0.000431,1.771737
7696000,0.0324,0.013523,0.002678,0.000431,1.784195
7697000,0.0324,0.013523,0.002678,0.000431,1.768564
7698000,0.0324,0.013523,0.002678,0.000431,1.752933
7699000,0.0324,0.013523,0.002678,0.000431,1.814518
7700000,0.0324,0.013523,0.002678,0.000431,1.679125
7701000,0.0324,0.013523,0.002678,0.000431,1.717204
7702000,0.0324,0.013523,0.002678,0.000431,1.707214
7703000,0.0324,0.013523,0.002678,0.000431,1.640811
7704000,0.0324,0.013523,0.002678,0.000431,1.660556
7705000,0.0324,0.013523,0.002678,0.000431,1.678538
7706000,0.0324,0.013523,0.002678,0.000431,1.673014
7707000,0.0324,0.013523,0.002678,0.000431,1.652329
7708000,0.0324,0.013523,0.002678,0.000431,1.632466
7709000,0.0324,0.013523,0.002678,0.000431,1.622477
7710000,0.0324,0.013523,0.002678,0.000431,1.644454
7711000,0.0324,0.013523,0.002678,0.000431,1.581459
7712000,0.0324,0.013523,0.002678,0.000431,1.593095
7713000,0.0324,0.013523,0.002678,0.000431,1.597326
7714000,0.0324,0.013523,0.002678,0.000431,1.567003
7715000,0.0324,0.013523,0.002678,0.000431,1.593800
7716000,0.0324,0.013523,0.002678,0.000431,1.637873
7717000,0.0324,0.013523,0.002678,0.000431,1.544085
7718000,0.0324,0.013523,0.002678,0.000431,1.565240
7719000,0.0324,0.013523,0.002678,0.000431,1.608961
7720000,0.0324,0.013523,0.002678,0.000431,1.616600
7721000,0.0324,0.013523,0.002678,0.000431,1.614485
7722000,0.0324,0.013523,0.002678,0.000431,1.596385
7723000,0.0324,0.013523,0.002678,0.000431,1.459465
7724000,0.0324,0.013523,0.002678,0.000431,1.652211
7725000,0.0324,0.013523,0.002678,0.000431,1.629528
7726000,0.0324,0.013523,0.002678,0.000431,1.631879
7727000,0.0324,0.013523,0.002678,0.000431,1.732836
7728000,0.0324,0.013523,0.002678,0.000431,1.764098
7729000,0.0324,0.013523,0.002678,0.000431,1.747409
7730000,0.0324,0.013523,0.002678,0.000431,1.727547
7731000,0.0324,0.013523,0.002678,0.000431,1.761160
7732000,0.0324,0.013523,0.002678,0.000431,1.734716
7733000,0.0324,0.013523,0.002678,0.000431,1.762453
7734000,0.0324,0.013523,0.002678,0.000431,1.656795
7735000,0.0324,0.013523,0.002678,0.000431,1.688998
7736000,0.0324,0.013523,0.002678,0.000431,1.670075
7737000,0.0324,0.013523,0.002678,0.000431,1.626237
7738000,0.0324,0.013523,0.002678,0.000431,1.676540
7739000,0.0324,0.013523,0.002678,0.000431,1.648098
7740000,0.0324,0.013523,0.002678,0.000431,1.704159
7741000,0.0324,0.013523,0.002678,0.000431,1.694051
7742000,0.0324,0.013523,0.002678,0.000431,1.772090
7743000,0.0324,0.013523,0.002678,0.000431,1.881039
7744000,0.0324,0.013523,0.002678,0.000431,1.777026
7745000,0.0324,0.013523,0.002678,0.000431,1.840256
7746000,0.0324,0.013523,0.002678,0.000431,1.710975
7747000,0.0324,0.013523,0.002678,0.000431,1.831912
7748000,0.0324,0.013523,0.002678,0.000431,1.802765
7749000,0.0324,0.013523,0.002678,0.000431,1.848718
7750000,0.0324,0.013523,0.002678,0.000431,1.792070
7751000,0.0324,0.013523,0.002678,0.000431,1.766214
7752000,0.0324,0.013523,0.002678,0.000431,1.961075
7753000,0.0324,0.013523,0.002678,0.000431,1.885975
7754000,0.0324,0.013523,0.002678,0.000431,1.860354
7755000,0.0324,0.013523,0.002678,0.000431,1.837788
7756000,0.0324,0.013523,0.002678,0.000431,1.792775
7757000,0.0324,0.013523,0.002678,0.000431,1.923819
7758000,0.0324,0.013523,0.002678,0.000431,1.778319
7759000,0.0324,0.013523,0.002678,0.000431,1.754108
7760000,0.0324,0.013523,0.002678,0.000431,1.848366
7761000,0.0324,0.013523,0.002678,0.000431,2.014903
7762000,0.0324,0.013523,0.002678,0.000431,1.932633
7763000,0.0324,0.013523,0.002678,0.000431,1.926875
7764000,0.0324,0.013523,0.002678,0.000431,1.874339
7765000,0.0324,0.013523,0.002678,0.000431,1.770327
7766000,0.0324,0.013523,0.002678,0.000431,1.892909
7767000,0.0324,0.013523,0.002678,0.000431,1.899608
7768000,0.0324,0.013523,0.002678,0.000431,1.957079
7769000,0.0324,0.013523,0.002678,0.000431,1.926404
7770000,0.0324,0.013523,0.002678,0.000431,1.835320
7771000,0.0324,0.013523,0.002678,0.000431,1.777144
7772000,0.0324,0.013523,0.002678,0.000431,1.903839
7773000,0.0324,0.013523,0.002678,0.000431,2.013140
7774000,0.0324,0.013523,0.002678,0.000431,1.993513
7775000,0.0324,0.013523,0.002678,0.000431,1.954611
7776000,0.0324,0.013523,0.002678,0.000431,1.895495
7777000,0.0324,0.013523,0.002678,0.000431,2.016901
7778000,0.0324,0.013523,0.002678,0.000431,2.000800
7779000,0.0324,0.013523,0.002678,0.000431,1.896200
7780000,0.0324,0.013523,0.002678,0.000431,1.966246
7781000,0.0324,0.013523,0.002678,0.000431,1.875162
7782000,0.0324,0.013523,0.002678,0.000431,1.918530
7783000,0.0324,0.013523,0.002678,0.000431,1.975649
7784000,0.0324,0.013523,0.002678,0.000431,1.890441
7785000,0.0324,0.013523,0.002678,0.000431,1.904427
7786000,0.0324,0.013523,0.002678,0.000431,1.826858
7787000,0.0324,0.013523,0.002678,0.000431,1.896200
7788000,0.0324,0.013523,0.002678,0.000431,1.859413
7789000,0.0324,0.013523,0.002678,0.000431,1.929578
7790000,0.0324,0.013523,0.002678,0.000431,2.087301
7791000,0.0324,0.013523,0.002678,0.000431,1.828033
7792000,0.0324,0.013523,0.002678,0.000431,2.026303
7793000,0.0324,0.013523,0.002678,0.000431,1.937100
7794000,0.0324,0.013523,0.002678,0.000431,1.969772
7795000,0.0324,0.013523,0.002678,0.000431,1.840961
7796000,0.0324,0.013523,0.002678,0.000431,1.928637
7797000,0.0324,0.013523,0.002678,0.000431,1.850951
7798000,0.0324,0.013523,0.002678,0.000431,1.922879
7799000,0.0324,0.013523,0.002678,0.000431,2.043933
7800000,0.0324,0.013523,0.002678,0.000431,1.948382
7801000,0.0324,0.013523,0.002678,0.000431,2.035353
7802000,0.0324,0.013523,0.002678,0.000431,2.024423
7803000,0.0324,0.013523,0.002678,0.000431,1.933456
7804000,0.0324,0.013523,0.002678,0.000431,2.047458
7805000,0.0324,0.013523,0.002678,0.000431,1.902429
7806000,0.0324,0.013523,0.002678,0.000431,2.007264
7807000,0.0324,0.013523,0.002678,0.000431,1.834968
7808000,0.0324,0.013523,0.002678,0.000431,1.896317
7809000,0.0324,0.013523,0.002678,0.000431,1.838846
7810000,0.0324,0.013523,0.002678,0.000431,1.824390
7811000,0.0324,0.013523,0.002678,0.000431,1.828739
7812000,0.0324,0.013523,0.002678,0.000431,1.866818
7813000,0.0324,0.013523,0.002678,0.000431,1.791012
7814000,0.0324,0.013523,0.002678,0.000431,1.877865
7815000,0.0324,0.013523,0.002678,0.000431,1.822039
7816000,0.0324,0.013523,0.002678,0.000431,1.730955
7817000,0.0324,0.013523,0.002678,0.000431,1.746939
7818000,0.0324,0.013523,0.002678,0.000431,1.794185
7819000,0.0324,0.013523,0.002678,0.000431,1.663024
7820000,0.0324,0.013523,0.002678,0.000431,1.833440
7821000,0.0324,0.013523,0.002678,0.000431,1.714501
7822000,0.0324,0.013523,0.002678,0.000431,1.738477
7823000,0.0324,0.013523,0.002678,0.000431,1.734598
7824000,0.0324,0.013523,0.002678,0.000431,1.758339
7825000,0.0324,0.013523,0.002678,0.000431,1.666902
7826000,0.0324,0.013523,0.002678,0.000431,1.625532
7827000,0.0324,0.013523,0.002678,0.000431,1.591214
7828000,0.0324,0.013523,0.002678,0.000431,1.724021
7829000,0.0324,0.013523,0.002678,0.000431,1.792892
7830000,0.0324,0.013523,0.002678,0.000431,1.625062
7831000,0.0324,0.013523,0.002678,0.000431,1.761512
7832000,0.0324,0.013523,0.002678,0.000431,1.683004
7833000,0.0324,0.013523,0.002678,0.000431,1.662906
7834000,0.0324,0.013523,0.002678,0.000431,1.714149
7835000,0.0324,0.013523,0.002678,0.000431,1.646335
7836000,0.0324,0.013523,0.002678,0.000431,1.588041
7837000,0.0324,0.013523,0.002678,0.000431,1.620008
7838000,0.0324,0.013523,0.002678,0.000431,1.587923
7839000,0.0324,0.013523,0.002678,0.000431,1.563712
7840000,0.0324,0.013523,0.002678,0.000431,1.586748
7841000,0.0324,0.013523,0.002678,0.000431,1.570999
7842000,0.0324,0.013523,0.002678,0.000431,1.611781
7843000,0.0324,0.013523,0.002678,0.000431,1.612134
7844000,0.0324,0.013523,0.002678,0.000431,1.648333
7845000,0.0324,0.013523,0.002678,0.000431,1.630351
7846000,0.0324,0.013523,0.002678,0.000431,1.595680
7847000,0.0324,0.013523,0.002678,0.000431,1.598736
7848000,0.0324,0.013523,0.002678,0.000431,1.600264
7849000,0.0324,0.013523,0.002678,0.000431,1.516231
7850000,0.0324,0.013523,0.002678,0.000431,1.535271
7851000,0.0324,0.013523,0.002678,0.000431,1.643749
7852000,0.0324,0.013523,0.002678,0.000431,1.679008
7853000,0.0324,0.013523,0.002678,0.000431,1.616953
7854000,0.0324,0.013523,0.002678,0.000431,1.827211
7855000,0.0324,0.013523,0.002678,0.000431,1.786428
7856000,0.0324,0.013523,0.002678,0.000431,1.826035
7857000,0.0324,0.013523,0.002678,0.000431,1.718732
7858000,0.0324,0.013523,0.002678,0.000431,1.707684
7859000,0.0324,0.013523,0.002678,0.000431,1.729310
7860000,0.0324,0.013523,0.002678,0.000431,1.658440
7861000,0.0324,0.013523,0.002678,0.000431,1.762218
7862000,0.0324,0.013523,0.002678,0.000431,1.868933
7863000,0.0324,0.013523,0.002678,0.000431,1.790189
7864000,0.0324,0.013523,0.002678,0.000431,1.829209
7865000,0.0324,0.013523,0.002678,0.000431,1.759632
7866000,0.0324,0.013523,0.002678,0.000431,1.759397
7867000,0.0324,0.013523,0.002678,0.000431,1.752228
7868000,0.0324,0.013523,0.002678,0.000431,1.788426
7869000,0.0324,0.013523,0.002678,0.000431,1.718027
7870000,0.0324,0.013523,0.002678,0.000431,1.777496
7871000,0.0324,0.013523,0.002678,0.000431,1.742238
7872000,0.0324,0.013523,0.002678,0.000431,1.833910
7873000,0.0324,0.013523,0.002678,0.000431,1.762100
7874000,0.0324,0.013523,0.002678,0.000431,1.856593
7875000,0.0324,0.013523,0.002678,0.000431,1.736714
7876000,0.0324,0.013523,0.002678,0.000431,1.772678
7877000,0.0324,0.013523,0.002678,0.000431,1.752463
7878000,0.0324,0.013523,0.002678,0.000431,1.795361
7879000,0.0324,0.013523,0.002678,0.000431,1.753168
7880000,0.0324,0.013523,0.002678,0.000431,1.945444
7881000,0.0324,0.013523,0.002678,0.000431,1.887150
7882000,0.0324,0.013523,0.002678,0.000431,1.942506
7883000,0.0324,0.013523,0.002678,0.000431,1.878570
7884000,0.0324,0.013523,0.002678,0.000431,2.041465
7885000,0.0324,0.013523,0.002678,0.000431,2.013140
7886000,0.0324,0.013523,0.002678,0.000431,1.954376
7887000,0.0324,0.013523,0.002678,0.000431,2.048046
7888000,0.0324,0.013523,0.002678,0.000431,2.103049
7889000,0.0324,0.013523,0.002678,0.000431,2.040877
7890000,0.0324,0.013523,0.002678,0.000431,1.880686
7891000,0.0324,0.013523,0.002678,0.000431,2.075783
7892000,0.0324,0.013523,0.002678,0.000431,2.102697
7893000,0.0324,0.013523,0.002678,0.000431,2.172861
7894000,0.0324,0.013523,0.002678,0.000431,2.163576
7895000,0.0324,0.013523,0.002678,0.000431,2.226219
7896000,0.0324,0.013523,0.002678,0.000431,2.198130
7897000,0.0324,0.013523,0.002678,0.000431,2.251958
7898000,0.0324,0.013523,0.002678,0.000431,2.198365
7899000,0.0324,0.013523,0.002678,0.000431,2.313777
7900000,0.0324,0.013523,0.002678,0.000431,2.305433
7901000,0.0324,0.013523,0.002678,0.000431,2.168160
7902000,0.0324,0.013523,0.002678,0.000431,2.239617
7903000,0.0324,0.013523,0.002678,0.000431,2.261125
7904000,0.0324,0.013523,0.002678,0.000431,2.214466
7905000,0.0324,0.013523,0.002678,0.000431,2.228804
7906000,0.0324,0.013523,0.002678,0.000431,2.265708
7907000,0.0324,0.013523,0.002678,0.000431,2.215994
7908000,0.0324,0.013523,0.002678,0.000431,2.201068
7909000,0.0324,0.013523,0.002678,0.000431,2.235151
7910000,0.0324,0.013523,0.002678,0.000431,2.164281
7911000,0.0324,0.013523,0.002678,0.000431,2.126672
7912000,0.0324,0.013523,0.002678,0.000431,2.121736
7913000,0.0324,0.013523,0.002678,0.000431,2.106223
7914000,0.0324,0.013523,0.002678,0.000431,2.078956
7915000,0.0324,0.013523,0.002678,0.000431,2.097878
7916000,0.0324,0.013523,0.002678,0.000431,2.078486
7917000,0.0324,0.013523,0.002678,0.000431,2.080249
7918000,0.0324,0.013523,0.002678,0.000431,2.078368
7919000,0.0324,0.013523,0.002678,0.000431,2.132666
7920000,0.0324,0.013523,0.002678,0.000431,1.999624
7921000,0.0324,0.013523,0.002678,0.000431,1.846603
7922000,0.0324,0.013523,0.002678,0.000431,2.052982
7923000,0.0324,0.013523,0.002678,0.000431,1.886915
7924000,0.0324,0.013523,0.002678,0.000431,1.926287
7925000,0.0324,0.013523,0.002678,0.000431,1.795008
7926000,0.0324,0.013523,0.002678,0.000431,1.966952
7927000,0.0324,0.013523,0.002678,0.000431,1.911478
7928000,0.0324,0.013523,0.002678,0.000431,1.745176
7929000,0.0324,0.013523,0.002678,0.000431,1.858591
7930000,0.0324,0.013523,0.002678,0.000431,1.819689
7931000,0.0324,0.013523,0.002678,0.000431,1.816516
7932000,0.0324,0.013523,0.002678,0.000431,1.841667
7933000,0.0324,0.013523,0.002678,0.000431,1.832970
7934000,0.0324,0.013523,0.002678,0.000431,1.818866
7935000,0.0324,0.013523,0.002678,0.000431,1.845310
7936000,0.0324,0.013523,0.002678,0.000431,1.791012
7937000,0.0324,0.013523,0.002678,0.000431,1.854242
7938000,0.0324,0.013523,0.002678,0.000431,1.785958
7939000,0.0324,0.013523,0.002678,0.000431,1.758809
7940000,0.0324,0.013523,0.002678,0.000431,1.880686
7941000,0.0324,0.013523,0.002678,0.000431,1.875162
7942000,0.0324,0.013523,0.002678,0.000431,1.854477
7943000,0.0324,0.013523,0.002678,0.000431,1.981525
7944000,0.0324,0.013523,0.002678,0.000431,1.893497
7945000,0.0324,0.013523,0.002678,0.000431,1.911713
7946000,0.0324,0.013523,0.002678,0.000431,1.760337
7947000,0.0324,0.013523,0.002678,0.000431,1.908423
7948000,0.0324,0.013523,0.002678,0.000431,1.859766
7949000,0.0324,0.013523,0.002678,0.000431,1.902076
7950000,0.0324,0.013523,0.002678,0.000431,1.998802
7951000,0.0324,0.013523,0.002678,0.000431,1.938980
7952000,0.0324,0.013523,0.002678,0.000431,1.915239
7953000,0.0324,0.013523,0.002678,0.000431,1.867875
7954000,0.0324,0.013523,0.002678,0.000431,1.992690
7955000,0.0324,0.013523,0.002678,0.000431,1.992925
7956000,0.0324,0.013523,0.002678,0.000431,1.815928
7957000,0.0324,0.013523,0.002678,0.000431,2.003973
7958000,0.0324,0.013523,0.002678,0.000431,1.932868
7959000,0.0324,0.013523,0.002678,0.000431,2.102344
7960000,0.0324,0.013523,0.002678,0.000431,1.957197
7961000,0.0324,0.013523,0.002678,0.000431,1.970125
7962000,0.0324,0.013523,0.002678,0.000431,1.935102
7963000,0.0324,0.013523,0.002678,0.000431,1.879276
7964000,0.0324,0.013523,0.002678,0.000431,2.035471
7965000,0.0324,0.013523,0.002678,0.000431,1.958020
7966000,0.0324,0.013523,0.002678,0.000431,1.978117
7967000,0.0324,0.013523,0.002678,0.000431,1.924054
7968000,0.0324,0.013523,0.002678,0.000431,1.991045
7969000,0.0324,0.013523,0.002678,0.000431,2.068966
7970000,0.0324,0.013523,0.002678,0.000431,2.006559
7971000,0.0324,0.013523,0.002678,0.000431,1.996921
7972000,0.0324,0.013523,0.002678,0.000431,2.049456
7973000,0.0324,0.013523,0.002678,0.000431,2.019604
7974000,0.0324,0.013523,0.002678,0.000431,1.883272
7975000,0.0324,0.013523,0.002678,0.000431,2.044638
7976000,0.0324,0.013523,0.002678,0.000431,2.017841
7977000,0.0324,0.013523,0.002678,0.000431,2.041700
7978000,0.0324,0.013523,0.002678,0.000431,1.974709
7979000,0.0324,0.013523,0.002678,0.000431,1.939568
7980000,0.0324,0.013523,0.002678,0.000431,2.036176
7981000,0.0324,0.013523,0.002678,0.000431,2.022190
7982000,0.0324,0.013523,0.002678,0.000431,1.936864
7983000,0.0324,0.013523,0.002678,0.000431,1.979175
7984000,0.0324,0.013523,0.002678,0.000431,1.976471
7985000,0.0324,0.013523,0.002678,0.000431,2.043580
7986000,0.0324,0.013523,0.002678,0.000431,2.063677
7987000,0.0324,0.013523,0.002678,0.000431,2.132784
7988000,0.0324,0.013523,0.002678,0.000431,2.023013
7989000,0.0324,0.013523,0.002678,0.000431,1.988577
7990000,0.0324,0.013523,0.002678,0.000431,2.026186
7991000,0.0324,0.013523,0.002678,0.000431,2.160050
7992000,0.0324,0.013523,0.002678,0.000431,2.135252
7993000,0.0324,0.013523,0.002678,0.000431,2.116095
7994000,0.0324,0.013523,0.002678,0.000431,2.181088
7995000,0.0324,0.013523,0.002678,0.000431,1.990105
7996000,0.0324,0.013523,0.002678,0.000431,2.180735
7997000,0.0324,0.013523,0.002678,0.000431,2.027479
7998000,0.0324,0.013523,0.002678,0.000431,2.115037
7999000,0.0324,0.013523,0.002678,0.000431,2.127143
