Cycle,Area(mm^2),PeakDynamic(W),SubthresholdLeakage(W),GateLeakage(W),RunTimeDynamic(W)
9000000,0.0324,0.013523,0.002678,0.000431,2.150531
9001000,0.0324,0.013523,0.002678,0.000431,1.972358
9002000,0.0324,0.013523,0.002678,0.000431,2.169218
9003000,0.0324,0.013523,0.002678,0.000431,2.106105
9004000,0.0324,0.013523,0.002678,0.000431,2.206944
9005000,0.0324,0.013523,0.002678,0.000431,2.032650
9006000,0.0324,0.013523,0.002678,0.000431,2.100581
9007000,0.0324,0.013523,0.002678,0.000431,2.002563
9008000,0.0324,0.013523,0.002678,0.000431,2.048164
9009000,0.0324,0.013523,0.002678,0.000431,1.996804
9010000,0.0324,0.013523,0.002678,0.000431,1.916767
9011000,0.0324,0.013523,0.002678,0.000431,2.046753
9012000,0.0324,0.013523,0.002678,0.000431,2.067203
9013000,0.0324,0.013523,0.002678,0.000431,2.007029
9014000,0.0324,0.013523,0.002678,0.000431,1.905484
9015000,0.0324,0.013523,0.002678,0.000431,2.131256
9016000,0.0324,0.013523,0.002678,0.000431,2.003268
9017000,0.0324,0.013523,0.002678,0.000431,1.877630
9018000,0.0324,0.013523,0.002678,0.000431,2.037704
9019000,0.0324,0.013523,0.002678,0.000431,1.963191
9020000,0.0324,0.013523,0.002678,0.000431,1.913829
9021000,0.0324,0.013523,0.002678,0.000431,1.792775
9022000,0.0324,0.013523,0.002678,0.000431,1.974356
9023000,0.0324,0.013523,0.002678,0.000431,1.977059
9024000,0.0324,0.013523,0.002678,0.000431,2.037939
9025000,0.0324,0.013523,0.002678,0.000431,2.130433
9026000,0.0324,0.013523,0.002678,0.000431,1.952613
9027000,0.0324,0.013523,0.002678,0.000431,1.931576
9028000,0.0324,0.013523,0.002678,0.000431,2.023365
9029000,0.0324,0.013523,0.002678,0.000431,2.133959
9030000,0.0324,0.013523,0.002678,0.000431,2.056743
9031000,0.0324,0.013523,0.002678,0.000431,2.137720
9032000,0.0324,0.013523,0.002678,0.000431,1.986461
9033000,0.0324,0.013523,0.002678,0.000431,2.120443
9034000,0.0324,0.013523,0.002678,0.000431,2.051925
9035000,0.0324,0.013523,0.002678,0.000431,2.129963
9036000,0.0324,0.013523,0.002678,0.000431,2.089298
9037000,0.0324,0.013523,0.002678,0.000431,2.129963
9038000,0.0324,0.013523,0.002678,0.000431,2.183791
9039000,0.0324,0.013523,0.002678,0.000431,2.091532
9040000,0.0324,0.013523,0.002678,0.000431,2.065205
9041000,0.0324,0.013523,0.002678,0.000431,2.150061
9042000,0.0324,0.013523,0.002678,0.000431,2.000565
9043000,0.0324,0.013523,0.002678,0.000431,1.985874
9044000,0.0324,0.013523,0.002678,0.000431,2.200245
9045000,0.0324,0.013523,0.002678,0.000431,2.072962
9046000,0.0324,0.013523,0.002678,0.000431,2.176269
9047000,0.0324,0.013523,0.002678,0.000431,2.041935
9048000,0.0324,0.013523,0.002678,0.000431,2.193781
9049000,0.0324,0.013523,0.002678,0.000431,2.066263
9050000,0.0324,0.013523,0.002678,0.000431,2.248197
9051000,0.0324,0.013523,0.002678,0.000431,2.061327
9052000,0.0324,0.013523,0.002678,0.000431,2.032180
9053000,0.0324,0.013523,0.002678,0.000431,2.066381
9054000,0.0324,0.013523,0.002678,0.000431,2.227394
9055000,0.0324,0.013523,0.002678,0.000431,2.185789
9056000,0.0324,0.013523,0.002678,0.000431,2.113627
9057000,0.0324,0.013523,0.002678,0.000431,2.007851
9058000,0.0324,0.013523,0.002678,0.000431,2.060387
9059000,0.0324,0.013523,0.002678,0.000431,1.913946
9060000,0.0324,0.013523,0.002678,0.000431,1.775733
9061000,0.0324,0.013523,0.002678,0.000431,2.122089
9062000,0.0324,0.013523,0.002678,0.000431,2.154292
9063000,0.0324,0.013523,0.002678,0.000431,2.135487
9064000,0.0324,0.013523,0.002678,0.000431,2.114450
9065000,0.0324,0.013523,0.002678,0.000431,1.999154
9066000,0.0324,0.013523,0.002678,0.000431,2.106810
9067000,0.0324,0.013523,0.002678,0.000431,2.078721
9068000,0.0324,0.013523,0.002678,0.000431,2.127025
9069000,0.0324,0.013523,0.002678,0.000431,2.067203
9070000,0.0324,0.013523,0.002678,0.000431,2.112804
9071000,0.0324,0.013523,0.002678,0.000431,2.129963
9072000,0.0324,0.013523,0.002678,0.000431,2.139601
9073000,0.0324,0.013523,0.002678,0.000431,2.147122
9074000,0.0324,0.013523,0.002678,0.000431,2.063325
9075000,0.0324,0.013523,0.002678,0.000431,2.102697
9076000,0.0324,0.013523,0.002678,0.000431,2.068731
9077000,0.0324,0.013523,0.002678,0.000431,2.157465
9078000,0.0324,0.013523,0.002678,0.000431,2.262182
9079000,0.0324,0.013523,0.002678,0.000431,2.024893
9080000,0.0324,0.013523,0.002678,0.000431,2.388995
9081000,0.0324,0.013523,0.002678,0.000431,2.048281
9082000,0.0324,0.013523,0.002678,0.000431,2.176622
9083000,0.0324,0.013523,0.002678,0.000431,2.244671
9084000,0.0324,0.013523,0.002678,0.000431,2.190138
9085000,0.0324,0.013523,0.002678,0.000431,2.276168
9086000,0.0324,0.013523,0.002678,0.000431,2.147122
9087000,0.0324,0.013523,0.002678,0.000431,2.129258
9088000,0.0324,0.013523,0.002678,0.000431,2.398398
9089000,0.0324,0.013523,0.002678,0.000431,2.267706
9090000,0.0324,0.013523,0.002678,0.000431,2.184614
9091000,0.0324,0.013523,0.002678,0.000431,2.259949
9092000,0.0324,0.013523,0.002678,0.000431,2.148415
9093000,0.0324,0.013523,0.002678,0.000431,2.370543
9094000,0.0324,0.013523,0.002678,0.000431,2.373482
9095000,0.0324,0.013523,0.002678,0.000431,2.066498
9096000,0.0324,0.013523,0.002678,0.000431,2.321417
9097000,0.0324,0.013523,0.002678,0.000431,2.284160
9098000,0.0324,0.013523,0.002678,0.000431,2.172979
9099000,0.0324,0.013523,0.002678,0.000431,2.218815
9100000,0.0324,0.013523,0.002678,0.000431,2.210235
9101000,0.0324,0.013523,0.002678,0.000431,1.947795
9102000,0.0324,0.013523,0.002678,0.000431,2.088358
9103000,0.0324,0.013523,0.002678,0.000431,2.100346
9104000,0.0324,0.013523,0.002678,0.000431,2.176269
9105000,0.0324,0.013523,0.002678,0.000431,2.174154
9106000,0.0324,0.013523,0.002678,0.000431,2.130903
9107000,0.0324,0.013523,0.002678,0.000431,2.171568
9108000,0.0324,0.013523,0.002678,0.000431,2.310604
9109000,0.0324,0.013523,0.002678,0.000431,2.208355
9110000,0.0324,0.013523,0.002678,0.000431,2.126908
9111000,0.0324,0.013523,0.002678,0.000431,2.044638
9112000,0.0324,0.013523,0.002678,0.000431,2.112804
9113000,0.0324,0.013523,0.002678,0.000431,1.879276
9114000,0.0324,0.013523,0.002678,0.000431,1.925934
9115000,0.0324,0.013523,0.002678,0.000431,1.938392
9116000,0.0324,0.013523,0.002678,0.000431,1.981878
9117000,0.0324,0.013523,0.002678,0.000431,1.870579
9118000,0.0324,0.013523,0.002678,0.000431,2.137955
9119000,0.0324,0.013523,0.002678,0.000431,1.974121
9120000,0.0324,0.013523,0.002678,0.000431,2.086125
9121000,0.0324,0.013523,0.002678,0.000431,2.060387
9122000,0.0324,0.013523,0.002678,0.000431,2.180030
9123000,0.0324,0.013523,0.002678,0.000431,2.166632
9124000,0.0324,0.013523,0.002678,0.000431,2.006676
9125000,0.0324,0.013523,0.002678,0.000431,2.150648
9126000,0.0324,0.013523,0.002678,0.000431,2.194369
9127000,0.0324,0.013523,0.002678,0.000431,2.089534
9128000,0.0324,0.013523,0.002678,0.000431,2.098113
9129000,0.0324,0.013523,0.002678,0.000431,2.207062
9130000,0.0324,0.013523,0.002678,0.000431,2.115272
9131000,0.0324,0.013523,0.002678,0.000431,2.170863
9132000,0.0324,0.013523,0.002678,0.000431,2.142539
9133000,0.0324,0.013523,0.002678,0.000431,2.182146
9134000,0.0324,0.013523,0.002678,0.000431,2.056038
9135000,0.0324,0.013523,0.002678,0.000431,2.207179
9136000,0.0324,0.013523,0.002678,0.000431,2.115390
9137000,0.0324,0.013523,0.002678,0.000431,2.166750
9138000,0.0324,0.013523,0.002678,0.000431,2.113392
9139000,0.0324,0.013523,0.002678,0.000431,2.186142
9140000,0.0324,0.013523,0.002678,0.000431,2.198952
9141000,0.0324,0.013523,0.002678,0.000431,2.084832
9142000,0.0324,0.013523,0.002678,0.000431,1.985756
9143000,0.0324,0.013523,0.002678,0.000431,2.185789
9144000,0.0324,0.013523,0.002678,0.000431,2.229862
9145000,0.0324,0.013523,0.002678,0.000431,2.041347
9146000,0.0324,0.013523,0.002678,0.000431,2.141716
9147000,0.0324,0.013523,0.002678,0.000431,2.169453
9148000,0.0324,0.013523,0.002678,0.000431,2.260302
9149000,0.0324,0.013523,0.002678,0.000431,2.132549
9150000,0.0324,0.013523,0.002678,0.000431,2.181323
9151000,0.0324,0.013523,0.002678,0.000431,2.256071
9152000,0.0324,0.013523,0.002678,0.000431,2.227512
9153000,0.0324,0.013523,0.002678,0.000431,2.213643
9154000,0.0324,0.013523,0.002678,0.000431,2.222105
9155000,0.0324,0.013523,0.002678,0.000431,2.142186
9156000,0.0324,0.013523,0.002678,0.000431,2.145477
9157000,0.0324,0.013523,0.002678,0.000431,2.214584
9158000,0.0324,0.013523,0.002678,0.000431,2.269822
9159000,0.0324,0.013523,0.002678,0.000431,2.272290
9160000,0.0324,0.013523,0.002678,0.000431,2.242438
9161000,0.0324,0.013523,0.002678,0.000431,2.171803
9162000,0.0324,0.013523,0.002678,0.000431,2.253838
9163000,0.0324,0.013523,0.002678,0.000431,2.205416
9164000,0.0324,0.013523,0.002678,0.000431,2.196837
9165000,0.0324,0.013523,0.002678,0.000431,2.244436
9166000,0.0324,0.013523,0.002678,0.000431,2.179560
9167000,0.0324,0.013523,0.002678,0.000431,2.238089
9168000,0.0324,0.013523,0.002678,0.000431,2.227629
9169000,0.0324,0.013523,0.002678,0.000431,2.208237
9170000,0.0324,0.013523,0.002678,0.000431,2.182733
9171000,0.0324,0.013523,0.002678,0.000431,2.024893
9172000,0.0324,0.013523,0.002678,0.000431,2.110689
9173000,0.0324,0.013523,0.002678,0.000431,2.177797
9174000,0.0324,0.013523,0.002678,0.000431,2.208237
9175000,0.0324,0.013523,0.002678,0.000431,2.268882
9176000,0.0324,0.013523,0.002678,0.000431,2.091061
9177000,0.0324,0.013523,0.002678,0.000431,2.206827
9178000,0.0324,0.013523,0.002678,0.000431,2.154997
9179000,0.0324,0.013523,0.002678,0.000431,2.161578
9180000,0.0324,0.013523,0.002678,0.000431,2.118210
9181000,0.0324,0.013523,0.002678,0.000431,2.270997
9182000,0.0324,0.013523,0.002678,0.000431,2.025951
9183000,0.0324,0.013523,0.002678,0.000431,2.198835
9184000,0.0324,0.013523,0.002678,0.000431,2.160403
9185000,0.0324,0.013523,0.002678,0.000431,2.068849
9186000,0.0324,0.013523,0.002678,0.000431,2.323885
9187000,0.0324,0.013523,0.002678,0.000431,2.289919
9188000,0.0324,0.013523,0.002678,0.000431,2.124674
9189000,0.0324,0.013523,0.002678,0.000431,1.975179
9190000,0.0324,0.013523,0.002678,0.000431,2.175329
9191000,0.0324,0.013523,0.002678,0.000431,2.021720
9192000,0.0324,0.013523,0.002678,0.000431,2.148298
9193000,0.0324,0.013523,0.002678,0.000431,2.063795
9194000,0.0324,0.013523,0.002678,0.000431,2.061914
9195000,0.0324,0.013523,0.002678,0.000431,2.025598
9196000,0.0324,0.013523,0.002678,0.000431,2.149473
9197000,0.0324,0.013523,0.002678,0.000431,2.019722
9198000,0.0324,0.013523,0.002678,0.000431,2.090591
9199000,0.0324,0.013523,0.002678,0.000431,2.088946
9200000,0.0324,0.013523,0.002678,0.000431,2.047811
9201000,0.0324,0.013523,0.002678,0.000431,2.066498
9202000,0.0324,0.013523,0.002678,0.000431,1.934866
9203000,0.0324,0.013523,0.002678,0.000431,1.947089
9204000,0.0324,0.013523,0.002678,0.000431,1.952143
9205000,0.0324,0.013523,0.002678,0.000431,2.119973
9206000,0.0324,0.013523,0.002678,0.000431,1.949205
9207000,0.0324,0.013523,0.002678,0.000431,1.961898
9208000,0.0324,0.013523,0.002678,0.000431,2.062737
9209000,0.0324,0.013523,0.002678,0.000431,2.036058
9210000,0.0324,0.013523,0.002678,0.000431,1.956139
9211000,0.0324,0.013523,0.002678,0.000431,2.044638
9212000,0.0324,0.013523,0.002678,0.000431,1.966364
9213000,0.0324,0.013523,0.002678,0.000431,2.065558
9214000,0.0324,0.013523,0.002678,0.000431,2.058976
9215000,0.0324,0.013523,0.002678,0.000431,1.847543
9216000,0.0324,0.013523,0.002678,0.000431,2.044285
9217000,0.0324,0.013523,0.002678,0.000431,2.178267
9218000,0.0324,0.013523,0.002678,0.000431,2.049221
9219000,0.0324,0.013523,0.002678,0.000431,2.165574
9220000,0.0324,0.013523,0.002678,0.000431,2.069789
9221000,0.0324,0.013523,0.002678,0.000431,1.999389
9222000,0.0324,0.013523,0.002678,0.000431,2.180265
9223000,0.0324,0.013523,0.002678,0.000431,2.088711
9224000,0.0324,0.013523,0.002678,0.000431,2.137368
9225000,0.0324,0.013523,0.002678,0.000431,2.225396
9226000,0.0324,0.013523,0.002678,0.000431,2.273818
9227000,0.0324,0.013523,0.002678,0.000431,2.209647
9228000,0.0324,0.013523,0.002678,0.000431,2.038056
9229000,0.0324,0.013523,0.002678,0.000431,2.159345
9230000,0.0324,0.013523,0.002678,0.000431,1.954141
9231000,0.0324,0.013523,0.002678,0.000431,2.183674
9232000,0.0324,0.013523,0.002678,0.000431,2.120914
9233000,0.0324,0.013523,0.002678,0.000431,2.146770
9234000,0.0324,0.013523,0.002678,0.000431,2.068261
9235000,0.0324,0.013523,0.002678,0.000431,2.102344
9236000,0.0324,0.013523,0.002678,0.000431,2.197189
9237000,0.0324,0.013523,0.002678,0.000431,2.148298
9238000,0.0324,0.013523,0.002678,0.000431,2.038409
9239000,0.0324,0.013523,0.002678,0.000431,2.260772
9240000,0.0324,0.013523,0.002678,0.000431,2.072257
9241000,0.0324,0.013523,0.002678,0.000431,2.153234
9242000,0.0324,0.013523,0.002678,0.000431,2.193546
9243000,0.0324,0.013523,0.002678,0.000431,2.208119
9244000,0.0324,0.013523,0.002678,0.000431,2.163459
9245000,0.0324,0.013523,0.002678,0.000431,2.221518
9246000,0.0324,0.013523,0.002678,0.000431,2.195544
9247000,0.0324,0.013523,0.002678,0.000431,2.145124
9248000,0.0324,0.013523,0.002678,0.000431,2.234093
9249000,0.0324,0.013523,0.002678,0.000431,2.310722
9250000,0.0324,0.013523,0.002678,0.000431,2.198952
9251000,0.0324,0.013523,0.002678,0.000431,2.263945
9252000,0.0324,0.013523,0.002678,0.000431,2.216346
9253000,0.0324,0.013523,0.002678,0.000431,2.311309
9254000,0.0324,0.013523,0.002678,0.000431,2.332699
9255000,0.0324,0.013523,0.002678,0.000431,2.250900
9256000,0.0324,0.013523,0.002678,0.000431,2.383236
9257000,0.0324,0.013523,0.002678,0.000431,2.219167
9258000,0.0324,0.013523,0.002678,0.000431,2.358203
9259000,0.0324,0.013523,0.002678,0.000431,2.241968
9260000,0.0324,0.013523,0.002678,0.000431,2.325178
9261000,0.0324,0.013523,0.002678,0.000431,2.363609
9262000,0.0324,0.013523,0.002678,0.000431,2.347743
9263000,0.0324,0.013523,0.002678,0.000431,2.285688
9264000,0.0324,0.013523,0.002678,0.000431,2.386645
9265000,0.0324,0.013523,0.002678,0.000431,2.314835
9266000,0.0324,0.013523,0.002678,0.000431,2.358791
9267000,0.0324,0.013523,0.002678,0.000431,2.364667
9268000,0.0324,0.013523,0.002678,0.000431,2.245141
9269000,0.0324,0.013523,0.002678,0.000431,2.379946
9270000,0.0324,0.013523,0.002678,0.000431,2.347861
9271000,0.0324,0.013523,0.002678,0.000431,2.269704
9272000,0.0324,0.013523,0.002678,0.000431,2.059446
9273000,0.0324,0.013523,0.002678,0.000431,2.220930
9274000,0.0324,0.013523,0.002678,0.000431,2.377125
9275000,0.0324,0.013523,0.002678,0.000431,2.320359
9276000,0.0324,0.013523,0.002678,0.000431,2.319301
9277000,0.0324,0.013523,0.002678,0.000431,2.335520
9278000,0.0324,0.013523,0.002678,0.000431,2.336108
9279000,0.0324,0.013523,0.002678,0.000431,2.316128
9280000,0.0324,0.013523,0.002678,0.000431,2.312837
9281000,0.0324,0.013523,0.002678,0.000431,2.388643
9282000,0.0324,0.013523,0.002678,0.000431,2.364197
9283000,0.0324,0.013523,0.002678,0.000431,2.362434
9284000,0.0324,0.013523,0.002678,0.000431,2.183909
9285000,0.0324,0.013523,0.002678,0.000431,2.108103
9286000,0.0324,0.013523,0.002678,0.000431,2.298381
9287000,0.0324,0.013523,0.002678,0.000431,2.258774
9288000,0.0324,0.013523,0.002678,0.000431,2.301437
9289000,0.0324,0.013523,0.002678,0.000431,2.221635
9290000,0.0324,0.013523,0.002678,0.000431,2.119151
9291000,0.0324,0.013523,0.002678,0.000431,2.094587
9292000,0.0324,0.013523,0.002678,0.000431,2.100229
9293000,0.0324,0.013523,0.002678,0.000431,2.377243
9294000,0.0324,0.013523,0.002678,0.000431,2.115742
9295000,0.0324,0.013523,0.002678,0.000431,2.058389
9296000,0.0324,0.013523,0.002678,0.000431,2.043698
9297000,0.0324,0.013523,0.002678,0.000431,2.196014
9298000,0.0324,0.013523,0.002678,0.000431,2.089416
9299000,0.0324,0.013523,0.002678,0.000431,2.174741
9300000,0.0324,0.013523,0.002678,0.000431,2.175799
9301000,0.0324,0.013523,0.002678,0.000431,2.098348
9302000,0.0324,0.013523,0.002678,0.000431,2.289919
9303000,0.0324,0.013523,0.002678,0.000431,2.274640
9304000,0.0324,0.013523,0.002678,0.000431,2.239500
9305000,0.0324,0.013523,0.002678,0.000431,2.227747
9306000,0.0324,0.013523,0.002678,0.000431,2.142421
9307000,0.0324,0.013523,0.002678,0.000431,2.222458
9308000,0.0324,0.013523,0.002678,0.000431,2.048164
9309000,0.0324,0.013523,0.002678,0.000431,2.153821
9310000,0.0324,0.013523,0.002678,0.000431,2.253250
9311000,0.0324,0.013523,0.002678,0.000431,2.190960
9312000,0.0324,0.013523,0.002678,0.000431,2.112099
9313000,0.0324,0.013523,0.002678,0.000431,2.158640
9314000,0.0324,0.013523,0.002678,0.000431,2.257364
9315000,0.0324,0.013523,0.002678,0.000431,2.201303
9316000,0.0324,0.013523,0.002678,0.000431,2.086713
9317000,0.0324,0.013523,0.002678,0.000431,2.046988
9318000,0.0324,0.013523,0.002678,0.000431,2.199657
9319000,0.0324,0.013523,0.002678,0.000431,2.142421
9320000,0.0324,0.013523,0.002678,0.000431,2.073667
9321000,0.0324,0.013523,0.002678,0.000431,2.086713
9322000,0.0324,0.013523,0.002678,0.000431,2.124910
9323000,0.0324,0.013523,0.002678,0.000431,2.112099
9324000,0.0324,0.013523,0.002678,0.000431,2.279107
9325000,0.0324,0.013523,0.002678,0.000431,2.211880
9326000,0.0324,0.013523,0.002678,0.000431,2.226101
9327000,0.0324,0.013523,0.002678,0.000431,2.148768
9328000,0.0324,0.013523,0.002678,0.000431,2.184731
9329000,0.0324,0.013523,0.002678,0.000431,2.020309
9330000,0.0324,0.013523,0.002678,0.000431,2.137838
9331000,0.0324,0.013523,0.002678,0.000431,2.123029
9332000,0.0324,0.013523,0.002678,0.000431,2.177210
9333000,0.0324,0.013523,0.002678,0.000431,2.082952
9334000,0.0324,0.013523,0.002678,0.000431,2.140893
9335000,0.0324,0.013523,0.002678,0.000431,2.046518
9336000,0.0324,0.013523,0.002678,0.000431,2.043933
9337000,0.0324,0.013523,0.002678,0.000431,2.101874
9338000,0.0324,0.013523,0.002678,0.000431,2.142774
9339000,0.0324,0.013523,0.002678,0.000431,1.947089
9340000,0.0324,0.013523,0.002678,0.000431,1.981643
9341000,0.0324,0.013523,0.002678,0.000431,2.077311
9342000,0.0324,0.013523,0.002678,0.000431,1.974944
9343000,0.0324,0.013523,0.002678,0.000431,2.097643
9344000,0.0324,0.013523,0.002678,0.000431,2.036058
9345000,0.0324,0.013523,0.002678,0.000431,2.119033
9346000,0.0324,0.013523,0.002678,0.000431,2.120091
9347000,0.0324,0.013523,0.002678,0.000431,2.088006
9348000,0.0324,0.013523,0.002678,0.000431,2.199657
9349000,0.0324,0.013523,0.002678,0.000431,2.077311
9350000,0.0324,0.013523,0.002678,0.000431,2.186964
9351000,0.0324,0.013523,0.002678,0.000431,2.202831
9352000,0.0324,0.013523,0.002678,0.000431,2.112099
9353000,0.0324,0.013523,0.002678,0.000431,2.230685
9354000,0.0324,0.013523,0.002678,0.000431,2.262182
9355000,0.0324,0.013523,0.002678,0.000431,2.179090
9356000,0.0324,0.013523,0.002678,0.000431,2.095763
9357000,0.0324,0.013523,0.002678,0.000431,2.080249
9358000,0.0324,0.013523,0.002678,0.000431,2.254308
9359000,0.0324,0.013523,0.002678,0.000431,2.148533
9360000,0.0324,0.013523,0.002678,0.000431,2.106340
9361000,0.0324,0.013523,0.002678,0.000431,2.174859
9362000,0.0324,0.013523,0.002678,0.000431,2.186847
9363000,0.0324,0.013523,0.002678,0.000431,2.156760
9364000,0.0324,0.013523,0.002678,0.000431,2.072257
9365000,0.0324,0.013523,0.002678,0.000431,2.345275
9366000,0.0324,0.013523,0.002678,0.000431,2.245376
9367000,0.0324,0.013523,0.002678,0.000431,2.303787
9368000,0.0324,0.013523,0.002678,0.000431,2.256776
9369000,0.0324,0.013523,0.002678,0.000431,2.154879
9370000,0.0324,0.013523,0.002678,0.000431,2.266296
9371000,0.0324,0.013523,0.002678,0.000431,2.251722
9372000,0.0324,0.013523,0.002678,0.000431,2.283925
9373000,0.0324,0.013523,0.002678,0.000431,2.371249
9374000,0.0324,0.013523,0.002678,0.000431,2.241850
9375000,0.0324,0.013523,0.002678,0.000431,2.357145
9376000,0.0324,0.013523,0.002678,0.000431,2.292740
9377000,0.0324,0.013523,0.002678,0.000431,2.345627
9378000,0.0324,0.013523,0.002678,0.000431,2.343629
9379000,0.0324,0.013523,0.002678,0.000431,2.234916
9380000,0.0324,0.013523,0.002678,0.000431,2.249607
9381000,0.0324,0.013523,0.002678,0.000431,2.270880
9382000,0.0324,0.013523,0.002678,0.000431,2.220460
9383000,0.0324,0.013523,0.002678,0.000431,2.251605
9384000,0.0324,0.013523,0.002678,0.000431,2.175212
9385000,0.0324,0.013523,0.002678,0.000431,2.196249
9386000,0.0324,0.013523,0.002678,0.000431,2.175329
9387000,0.0324,0.013523,0.002678,0.000431,2.221988
9388000,0.0324,0.013523,0.002678,0.000431,2.119856
9389000,0.0324,0.013523,0.002678,0.000431,2.150766
9390000,0.0324,0.013523,0.002678,0.000431,2.057683
9391000,0.0324,0.013523,0.002678,0.000431,2.104107
9392000,0.0324,0.013523,0.002678,0.000431,2.215054
9393000,0.0324,0.013523,0.002678,0.000431,2.122441
9394000,0.0324,0.013523,0.002678,0.000431,2.168983
9395000,0.0324,0.013523,0.002678,0.000431,2.147122
9396000,0.0324,0.013523,0.002678,0.000431,2.083305
9397000,0.0324,0.013523,0.002678,0.000431,2.121266
9398000,0.0324,0.013523,0.002678,0.000431,2.080484
9399000,0.0324,0.013523,0.002678,0.000431,2.095880
9400000,0.0324,0.013523,0.002678,0.000431,1.972593
9401000,0.0324,0.013523,0.002678,0.000431,2.010320
9402000,0.0324,0.013523,0.002678,0.000431,2.053687
9403000,0.0324,0.013523,0.002678,0.000431,2.104225
9404000,0.0324,0.013523,0.002678,0.000431,2.234563
9405000,0.0324,0.013523,0.002678,0.000431,2.135722
9406000,0.0324,0.013523,0.002678,0.000431,2.175917
9407000,0.0324,0.013523,0.002678,0.000431,2.039819
9408000,0.0324,0.013523,0.002678,0.000431,2.094822
9409000,0.0324,0.013523,0.002678,0.000431,2.088476
9410000,0.0324,0.013523,0.002678,0.000431,2.023130
9411000,0.0324,0.013523,0.002678,0.000431,2.080601
9412000,0.0324,0.013523,0.002678,0.000431,2.145242
9413000,0.0324,0.013523,0.002678,0.000431,2.018899
9414000,0.0324,0.013523,0.002678,0.000431,2.062032
9415000,0.0324,0.013523,0.002678,0.000431,2.011495
9416000,0.0324,0.013523,0.002678,0.000431,2.050984
9417000,0.0324,0.013523,0.002678,0.000431,2.002093
9418000,0.0324,0.013523,0.002678,0.000431,1.866700
9419000,0.0324,0.013523,0.002678,0.000431,2.057448
9420000,0.0324,0.013523,0.002678,0.000431,1.982700
9421000,0.0324,0.013523,0.002678,0.000431,1.948970
9422000,0.0324,0.013523,0.002678,0.000431,1.842724
9423000,0.0324,0.013523,0.002678,0.000431,1.849306
9424000,0.0324,0.013523,0.002678,0.000431,1.860471
9425000,0.0324,0.013523,0.002678,0.000431,1.952848
9426000,0.0324,0.013523,0.002678,0.000431,1.860589
9427000,0.0324,0.013523,0.002678,0.000431,1.851421
9428000,0.0324,0.013523,0.002678,0.000431,1.768564
9429000,0.0324,0.013523,0.002678,0.000431,1.898785
9430000,0.0324,0.013523,0.002678,0.000431,1.870814
9431000,0.0324,0.013523,0.002678,0.000431,1.769857
9432000,0.0324,0.013523,0.002678,0.000431,1.770562
9433000,0.0324,0.013523,0.002678,0.000431,1.809934
9434000,0.0324,0.013523,0.002678,0.000431,1.694286
9435000,0.0324,0.013523,0.002678,0.000431,1.843312
9436000,0.0324,0.013523,0.002678,0.000431,1.712621
9437000,0.0324,0.013523,0.002678,0.000431,1.730485
9438000,0.0324,0.013523,0.002678,0.000431,1.667842
9439000,0.0324,0.013523,0.002678,0.000431,1.671486
9440000,0.0324,0.013523,0.002678,0.000431,1.594857
9441000,0.0324,0.013523,0.002678,0.000431,1.643279
9442000,0.0324,0.013523,0.002678,0.000431,1.606140
9443000,0.0324,0.013523,0.002678,0.000431,1.539032
9444000,0.0324,0.013523,0.002678,0.000431,1.544438
9445000,0.0324,0.013523,0.002678,0.000431,1.578521
9446000,0.0324,0.013523,0.002678,0.000431,1.519052
9447000,0.0324,0.013523,0.002678,0.000431,1.555015
9448000,0.0324,0.013523,0.002678,0.000431,1.520697
9449000,0.0324,0.013523,0.002678,0.000431,1.524341
9450000,0.0324,0.013523,0.002678,0.000431,1.539267
9451000,0.0324,0.013523,0.002678,0.000431,1.464284
9452000,0.0324,0.013523,0.002678,0.000431,1.479210
9453000,0.0324,0.013523,0.002678,0.000431,1.430553
9454000,0.0324,0.013523,0.002678,0.000431,1.471923
9455000,0.0324,0.013523,0.002678,0.000431,1.543498
9456000,0.0324,0.013523,0.002678,0.000431,1.487907
9457000,0.0324,0.013523,0.002678,0.000431,1.589804
9458000,0.0324,0.013523,0.002678,0.000431,1.657030
9459000,0.0324,0.013523,0.002678,0.000431,1.663376
9460000,0.0324,0.013523,0.002678,0.000431,1.649508
9461000,0.0324,0.013523,0.002678,0.000431,1.751287
9462000,0.0324,0.013523,0.002678,0.000431,1.757516
9463000,0.0324,0.013523,0.002678,0.000431,1.856945
9464000,0.0324,0.013523,0.002678,0.000431,1.751993
9465000,0.0324,0.013523,0.002678,0.000431,1.846485
9466000,0.0324,0.013523,0.002678,0.000431,1.834145
9467000,0.0324,0.013523,0.002678,0.000431,1.807348
9468000,0.0324,0.013523,0.002678,0.000431,1.777849
9469000,0.0324,0.013523,0.002678,0.000431,1.722258
9470000,0.0324,0.013523,0.002678,0.000431,1.744118
9471000,0.0324,0.013523,0.002678,0.000431,1.701220
9472000,0.0324,0.013523,0.002678,0.000431,1.701103
9473000,0.0324,0.013523,0.002678,0.000431,1.671016
9474000,0.0324,0.013523,0.002678,0.000431,1.703336
9475000,0.0324,0.013523,0.002678,0.000431,1.658088
9476000,0.0324,0.013523,0.002678,0.000431,1.606023
9477000,0.0324,0.013523,0.002678,0.000431,1.673131
9478000,0.0324,0.013523,0.002678,0.000431,1.642926
9479000,0.0324,0.013523,0.002678,0.000431,1.699693
9480000,0.0324,0.013523,0.002678,0.000431,1.761395
9481000,0.0324,0.013523,0.002678,0.000431,1.715794
9482000,0.0324,0.013523,0.002678,0.000431,1.769504
9483000,0.0324,0.013523,0.002678,0.000431,1.731543
9484000,0.0324,0.013523,0.002678,0.000431,1.779847
9485000,0.0324,0.013523,0.002678,0.000431,1.716499
9486000,0.0324,0.013523,0.002678,0.000431,1.658205
9487000,0.0324,0.013523,0.002678,0.000431,1.716969
9488000,0.0324,0.013523,0.002678,0.000431,1.715089
9489000,0.0324,0.013523,0.002678,0.000431,1.752580
9490000,0.0324,0.013523,0.002678,0.000431,1.803235
9491000,0.0324,0.013523,0.002678,0.000431,1.692171
9492000,0.0324,0.013523,0.002678,0.000431,1.879628
9493000,0.0324,0.013523,0.002678,0.000431,1.765156
9494000,0.0324,0.013523,0.002678,0.000431,1.900666
9495000,0.0324,0.013523,0.002678,0.000431,1.858591
9496000,0.0324,0.013523,0.002678,0.000431,1.897728
9497000,0.0324,0.013523,0.002678,0.000431,1.877043
9498000,0.0324,0.013523,0.002678,0.000431,1.646570
9499000,0.0324,0.013523,0.002678,0.000431,1.897493
9500000,0.0324,0.013523,0.002678,0.000431,1.755166
9501000,0.0324,0.013523,0.002678,0.000431,1.784901
9502000,0.0324,0.013523,0.002678,0.000431,1.680418
9503000,0.0324,0.013523,0.002678,0.000431,1.765156
9504000,0.0324,0.013523,0.002678,0.000431,1.702396
9505000,0.0324,0.013523,0.002678,0.000431,1.718497
9506000,0.0324,0.013523,0.002678,0.000431,1.631409
9507000,0.0324,0.013523,0.002678,0.000431,1.688057
9508000,0.0324,0.013523,0.002678,0.000431,1.652564
9509000,0.0324,0.013523,0.002678,0.000431,1.631291
9510000,0.0324,0.013523,0.002678,0.000431,1.669723
9511000,0.0324,0.013523,0.002678,0.000431,1.614602
9512000,0.0324,0.013523,0.002678,0.000431,1.673719
9513000,0.0324,0.013523,0.002678,0.000431,1.681241
9514000,0.0324,0.013523,0.002678,0.000431,1.715911
9515000,0.0324,0.013523,0.002678,0.000431,1.756341
9516000,0.0324,0.013523,0.002678,0.000431,1.724491
9517000,0.0324,0.013523,0.002678,0.000431,1.840726
9518000,0.0324,0.013523,0.002678,0.000431,1.769152
9519000,0.0324,0.013523,0.002678,0.000431,1.897610
9520000,0.0324,0.013523,0.002678,0.000431,1.835320
9521000,0.0324,0.013523,0.002678,0.000431,1.780552
9522000,0.0324,0.013523,0.002678,0.000431,1.858826
9523000,0.0324,0.013523,0.002678,0.000431,1.763863
9524000,0.0324,0.013523,0.002678,0.000431,1.781140
9525000,0.0324,0.013523,0.002678,0.000431,1.840726
9526000,0.0324,0.013523,0.002678,0.000431,1.760102
9527000,0.0324,0.013523,0.002678,0.000431,1.836025
9528000,0.0324,0.013523,0.002678,0.000431,1.822627
9529000,0.0324,0.013523,0.002678,0.000431,1.857415
9530000,0.0324,0.013523,0.002678,0.000431,1.847896
9531000,0.0324,0.013523,0.002678,0.000431,1.811697
9532000,0.0324,0.013523,0.002678,0.000431,1.819689
9533000,0.0324,0.013523,0.002678,0.000431,1.760455
9534000,0.0324,0.013523,0.002678,0.000431,1.768447
9535000,0.0324,0.013523,0.002678,0.000431,1.704394
9536000,0.0324,0.013523,0.002678,0.000431,1.789719
9537000,0.0324,0.013523,0.002678,0.000431,1.655620
9538000,0.0324,0.013523,0.002678,0.000431,1.740945
9539000,0.0324,0.013523,0.002678,0.000431,1.680418
9540000,0.0324,0.013523,0.002678,0.000431,1.636462
9541000,0.0324,0.013523,0.002678,0.000431,1.617658
9542000,0.0324,0.013523,0.002678,0.000431,1.651624
9543000,0.0324,0.013523,0.002678,0.000431,1.572410
9544000,0.0324,0.013523,0.002678,0.000431,1.572292
9545000,0.0324,0.013523,0.002678,0.000431,1.635287
9546000,0.0324,0.013523,0.002678,0.000431,1.648568
9547000,0.0324,0.013523,0.002678,0.000431,1.682651
9548000,0.0324,0.013523,0.002678,0.000431,1.692758
9549000,0.0324,0.013523,0.002678,0.000431,1.693816
9550000,0.0324,0.013523,0.002678,0.000431,1.808054
9551000,0.0324,0.013523,0.002678,0.000431,1.755166
9552000,0.0324,0.013523,0.002678,0.000431,1.787486
9553000,0.0324,0.013523,0.002678,0.000431,1.849659
9554000,0.0324,0.013523,0.002678,0.000431,1.696284
9555000,0.0324,0.013523,0.002678,0.000431,1.799239
9556000,0.0324,0.013523,0.002678,0.000431,1.756694
9557000,0.0324,0.013523,0.002678,0.000431,1.828033
9558000,0.0324,0.013523,0.002678,0.000431,1.790777
9559000,0.0324,0.013523,0.002678,0.000431,1.739770
9560000,0.0324,0.013523,0.002678,0.000431,1.807583
9561000,0.0324,0.013523,0.002678,0.000431,1.878218
9562000,0.0324,0.013523,0.002678,0.000431,1.820394
9563000,0.0324,0.013523,0.002678,0.000431,1.878100
9564000,0.0324,0.013523,0.002678,0.000431,1.905249
9565000,0.0324,0.013523,0.002678,0.000431,1.813460
9566000,0.0324,0.013523,0.002678,0.000431,1.852244
9567000,0.0324,0.013523,0.002678,0.000431,1.792775
9568000,0.0324,0.013523,0.002678,0.000431,1.773735
9569000,0.0324,0.013523,0.002678,0.000431,1.758457
9570000,0.0324,0.013523,0.002678,0.000431,1.788309
9571000,0.0324,0.013523,0.002678,0.000431,1.799239
9572000,0.0324,0.013523,0.002678,0.000431,1.729427
9573000,0.0324,0.013523,0.002678,0.000431,1.838023
9574000,0.0324,0.013523,0.002678,0.000431,1.835555
9575000,0.0324,0.013523,0.002678,0.000431,1.819101
9576000,0.0324,0.013523,0.002678,0.000431,1.849541
9577000,0.0324,0.013523,0.002678,0.000431,1.770092
9578000,0.0324,0.013523,0.002678,0.000431,1.807936
9579000,0.0324,0.013523,0.002678,0.000431,1.866112
9580000,0.0324,0.013523,0.002678,0.000431,1.812285
9581000,0.0324,0.013523,0.002678,0.000431,1.818279
9582000,0.0324,0.013523,0.002678,0.000431,1.828503
9583000,0.0324,0.013523,0.002678,0.000431,1.951673
9584000,0.0324,0.013523,0.002678,0.000431,1.884447
9585000,0.0324,0.013523,0.002678,0.000431,1.931341
9586000,0.0324,0.013523,0.002678,0.000431,1.951203
9587000,0.0324,0.013523,0.002678,0.000431,1.877630
9588000,0.0324,0.013523,0.002678,0.000431,1.962015
9589000,0.0324,0.013523,0.002678,0.000431,1.976824
9590000,0.0324,0.013523,0.002678,0.000431,1.928050
9591000,0.0324,0.013523,0.002678,0.000431,2.032650
9592000,0.0324,0.013523,0.002678,0.000431,1.943799
9593000,0.0324,0.013523,0.002678,0.000431,1.985521
9594000,0.0324,0.013523,0.002678,0.000431,2.022307
9595000,0.0324,0.013523,0.002678,0.000431,2.044755
9596000,0.0324,0.013523,0.002678,0.000431,1.981290
9597000,0.0324,0.013523,0.002678,0.000431,2.031475
9598000,0.0324,0.013523,0.002678,0.000431,2.056978
9599000,0.0324,0.013523,0.002678,0.000431,2.076841
9600000,0.0324,0.013523,0.002678,0.000431,2.006911
9601000,0.0324,0.013523,0.002678,0.000431,1.926875
9602000,0.0324,0.013523,0.002678,0.000431,2.063207
9603000,0.0324,0.013523,0.002678,0.000431,1.959900
9604000,0.0324,0.013523,0.002678,0.000431,2.055098
9605000,0.0324,0.013523,0.002678,0.000431,2.060739
9606000,0.0324,0.013523,0.002678,0.000431,1.921233
9607000,0.0324,0.013523,0.002678,0.000431,1.997391
9608000,0.0324,0.013523,0.002678,0.000431,1.891734
9609000,0.0324,0.013523,0.002678,0.000431,2.054628
9610000,0.0324,0.013523,0.002678,0.000431,2.192723
9611000,0.0324,0.013523,0.002678,0.000431,2.163576
9612000,0.0324,0.013523,0.002678,0.000431,2.183439
9613000,0.0324,0.013523,0.002678,0.000431,2.078956
9614000,0.0324,0.013523,0.002678,0.000431,2.088946
9615000,0.0324,0.013523,0.002678,0.000431,2.157112
9616000,0.0324,0.013523,0.002678,0.000431,2.045931
9617000,0.0324,0.013523,0.002678,0.000431,2.134547
9618000,0.0324,0.013523,0.002678,0.000431,2.252310
9619000,0.0324,0.013523,0.002678,0.000431,2.054628
9620000,0.0324,0.013523,0.002678,0.000431,2.219285
9621000,0.0324,0.013523,0.002678,0.000431,2.260537
9622000,0.0324,0.013523,0.002678,0.000431,2.289567
9623000,0.0324,0.013523,0.002678,0.000431,2.303082
9624000,0.0324,0.013523,0.002678,0.000431,2.164046
9625000,0.0324,0.013523,0.002678,0.000431,2.242673
9626000,0.0324,0.013523,0.002678,0.000431,2.329291
9627000,0.0324,0.013523,0.002678,0.000431,2.256541
9628000,0.0324,0.013523,0.002678,0.000431,2.291094
9629000,0.0324,0.013523,0.002678,0.000431,2.278519
9630000,0.0324,0.013523,0.002678,0.000431,2.370308
9631000,0.0324,0.013523,0.002678,0.000431,2.205416
9632000,0.0324,0.013523,0.002678,0.000431,2.223751
9633000,0.0324,0.013523,0.002678,0.000431,2.188610
9634000,0.0324,0.013523,0.002678,0.000431,2.215406
9635000,0.0324,0.013523,0.002678,0.000431,2.200833
9636000,0.0324,0.013523,0.002678,0.000431,2.269822
9637000,0.0324,0.013523,0.002678,0.000431,2.224338
9638000,0.0324,0.013523,0.002678,0.000431,2.236209
9639000,0.0324,0.013523,0.002678,0.000431,2.215524
9640000,0.0324,0.013523,0.002678,0.000431,2.066263
9641000,0.0324,0.013523,0.002678,0.000431,2.047106
9642000,0.0324,0.013523,0.002678,0.000431,2.111394
9643000,0.0324,0.013523,0.002678,0.000431,2.149120
9644000,0.0324,0.013523,0.002678,0.000431,2.311074
9645000,0.0324,0.013523,0.002678,0.000431,2.267001
9646000,0.0324,0.013523,0.002678,0.000431,2.300614
9647000,0.0324,0.013523,0.002678,0.000431,2.144889
9648000,0.0324,0.013523,0.002678,0.000431,2.221165
9649000,0.0324,0.013523,0.002678,0.000431,2.197307
9650000,0.0324,0.013523,0.002678,0.000431,2.194839
9651000,0.0324,0.013523,0.002678,0.000431,2.272172
9652000,0.0324,0.013523,0.002678,0.000431,2.294503
9653000,0.0324,0.013523,0.002678,0.000431,2.167925
9654000,0.0324,0.013523,0.002678,0.000431,2.319184
9655000,0.0324,0.013523,0.002678,0.000431,2.076841
9656000,0.0324,0.013523,0.002678,0.000431,2.172861
9657000,0.0324,0.013523,0.002678,0.000431,2.237854
9658000,0.0324,0.013523,0.002678,0.000431,2.311192
9659000,0.0324,0.013523,0.002678,0.000431,2.305550
9660000,0.0324,0.013523,0.002678,0.000431,2.229040
9661000,0.0324,0.013523,0.002678,0.000431,2.256306
9662000,0.0324,0.013523,0.002678,0.000431,2.268882
9663000,0.0324,0.013523,0.002678,0.000431,2.328703
9664000,0.0324,0.013523,0.002678,0.000431,2.256894
9665000,0.0324,0.013523,0.002678,0.000431,2.187670
9666000,0.0324,0.013523,0.002678,0.000431,2.171216
9667000,0.0324,0.013523,0.002678,0.000431,2.322004
9668000,0.0324,0.013523,0.002678,0.000431,2.303435
9669000,0.0324,0.013523,0.002678,0.000431,2.169688
9670000,0.0324,0.013523,0.002678,0.000431,2.340221
9671000,0.0324,0.013523,0.002678,0.000431,2.146887
9672000,0.0324,0.013523,0.002678,0.000431,2.278401
9673000,0.0324,0.013523,0.002678,0.000431,2.137250
9674000,0.0324,0.013523,0.002678,0.000431,2.166985
9675000,0.0324,0.013523,0.002678,0.000431,2.093647
9676000,0.0324,0.013523,0.002678,0.000431,2.278401
9677000,0.0324,0.013523,0.002678,0.000431,2.254426
9678000,0.0324,0.013523,0.002678,0.000431,2.251487
9679000,0.0324,0.013523,0.002678,0.000431,2.185789
9680000,0.0324,0.013523,0.002678,0.000431,2.262770
9681000,0.0324,0.013523,0.002678,0.000431,2.296148
9682000,0.0324,0.013523,0.002678,0.000431,2.217522
9683000,0.0324,0.013523,0.002678,0.000431,2.241850
9684000,0.0324,0.013523,0.002678,0.000431,2.174271
9685000,0.0324,0.013523,0.002678,0.000431,1.972475
9686000,0.0324,0.013523,0.002678,0.000431,2.206357
9687000,0.0324,0.013523,0.002678,0.000431,2.227864
9688000,0.0324,0.013523,0.002678,0.000431,2.093765
9689000,0.0324,0.013523,0.002678,0.000431,2.205534
9690000,0.0324,0.013523,0.002678,0.000431,2.224221
9691000,0.0324,0.013523,0.002678,0.000431,2.234681
9692000,0.0324,0.013523,0.002678,0.000431,2.145359
9693000,0.0324,0.013523,0.002678,0.000431,2.186259
9694000,0.0324,0.013523,0.002678,0.000431,2.057096
9695000,0.0324,0.013523,0.002678,0.000431,2.010437
9696000,0.0324,0.013523,0.002678,0.000431,2.263828
9697000,0.0324,0.013523,0.002678,0.000431,2.337988
9698000,0.0324,0.013523,0.002678,0.000431,2.205416
9699000,0.0324,0.013523,0.002678,0.000431,1.997274
9700000,0.0324,0.013523,0.002678,0.000431,2.160756
9701000,0.0324,0.013523,0.002678,0.000431,2.355030
9702000,0.0324,0.013523,0.002678,0.000431,2.156525
9703000,0.0324,0.013523,0.002678,0.000431,2.170981
9704000,0.0324,0.013523,0.002678,0.000431,2.129141
9705000,0.0324,0.013523,0.002678,0.000431,2.294503
9706000,0.0324,0.013523,0.002678,0.000431,2.245729
9707000,0.0324,0.013523,0.002678,0.000431,2.157465
9708000,0.0324,0.013523,0.002678,0.000431,2.212233
9709000,0.0324,0.013523,0.002678,0.000431,2.356793
9710000,0.0324,0.013523,0.002678,0.000431,2.312367
9711000,0.0324,0.013523,0.002678,0.000431,2.410621
9712000,0.0324,0.013523,0.002678,0.000431,2.300262
9713000,0.0324,0.013523,0.002678,0.000431,2.459630
9714000,0.0324,0.013523,0.002678,0.000431,2.231508
9715000,0.0324,0.013523,0.002678,0.000431,2.349506
9716000,0.0324,0.013523,0.002678,0.000431,2.386527
9717000,0.0324,0.013523,0.002678,0.000431,2.298264
9718000,0.0324,0.013523,0.002678,0.000431,2.432716
9719000,0.0324,0.013523,0.002678,0.000431,2.282045
9720000,0.0324,0.013523,0.002678,0.000431,2.162871
9721000,0.0324,0.013523,0.002678,0.000431,2.242908
9722000,0.0324,0.013523,0.002678,0.000431,2.262770
9723000,0.0324,0.013523,0.002678,0.000431,2.167220
9724000,0.0324,0.013523,0.002678,0.000431,2.191195
9725000,0.0324,0.013523,0.002678,0.000431,2.215876
9726000,0.0324,0.013523,0.002678,0.000431,2.171451
9727000,0.0324,0.013523,0.002678,0.000431,2.259009
9728000,0.0324,0.013523,0.002678,0.000431,2.255953
9729000,0.0324,0.013523,0.002678,0.000431,2.195662
9730000,0.0324,0.013523,0.002678,0.000431,2.230567
9731000,0.0324,0.013523,0.002678,0.000431,2.328233
9732000,0.0324,0.013523,0.002678,0.000431,2.087418
9733000,0.0324,0.013523,0.002678,0.000431,2.118445
9734000,0.0324,0.013523,0.002678,0.000431,2.036881
9735000,0.0324,0.013523,0.002678,0.000431,2.266178
9736000,0.0324,0.013523,0.002678,0.000431,2.304845
9737000,0.0324,0.013523,0.002678,0.000431,2.226219
9738000,0.0324,0.013523,0.002678,0.000431,1.978940
9739000,0.0324,0.013523,0.002678,0.000431,2.004796
9740000,0.0324,0.013523,0.002678,0.000431,2.229275
9741000,0.0324,0.013523,0.002678,0.000431,2.090826
9742000,0.0324,0.013523,0.002678,0.000431,2.203888
9743000,0.0324,0.013523,0.002678,0.000431,2.202831
9744000,0.0324,0.013523,0.002678,0.000431,2.153234
9745000,0.0324,0.013523,0.002678,0.000431,1.960017
9746000,0.0324,0.013523,0.002678,0.000431,1.943328
9747000,0.0324,0.013523,0.002678,0.000431,2.118328
9748000,0.0324,0.013523,0.002678,0.000431,2.017489
9749000,0.0324,0.013523,0.002678,0.000431,1.981055
9750000,0.0324,0.013523,0.002678,0.000431,2.090121
9751000,0.0324,0.013523,0.002678,0.000431,2.189668
9752000,0.0324,0.013523,0.002678,0.000431,2.148180
9753000,0.0324,0.013523,0.002678,0.000431,2.103049
9754000,0.0324,0.013523,0.002678,0.000431,2.171216
9755000,0.0324,0.013523,0.002678,0.000431,2.196602
9756000,0.0324,0.013523,0.002678,0.000431,2.123147
9757000,0.0324,0.013523,0.002678,0.000431,2.076135
9758000,0.0324,0.013523,0.002678,0.000431,2.257716
9759000,0.0324,0.013523,0.002678,0.000431,2.088828
9760000,0.0324,0.013523,0.002678,0.000431,1.888090
9761000,0.0324,0.013523,0.002678,0.000431,1.793363
9762000,0.0324,0.013523,0.002678,0.000431,1.801825
9763000,0.0324,0.013523,0.002678,0.000431,1.808171
9764000,0.0324,0.013523,0.002678,0.000431,2.213291
9765000,0.0324,0.013523,0.002678,0.000431,2.195897
9766000,0.0324,0.013523,0.002678,0.000431,2.265356
9767000,0.0324,0.013523,0.002678,0.000431,2.246434
9768000,0.0324,0.013523,0.002678,0.000431,2.242320
9769000,0.0324,0.013523,0.002678,0.000431,2.247491
9770000,0.0324,0.013523,0.002678,0.000431,2.181793
9771000,0.0324,0.013523,0.002678,0.000431,2.336578
9772000,0.0324,0.013523,0.002678,0.000431,2.202361
9773000,0.0324,0.013523,0.002678,0.000431,2.292975
9774000,0.0324,0.013523,0.002678,0.000431,2.222340
9775000,0.0324,0.013523,0.002678,0.000431,2.197424
9776000,0.0324,0.013523,0.002678,0.000431,2.253603
9777000,0.0324,0.013523,0.002678,0.000431,2.211880
9778000,0.0324,0.013523,0.002678,0.000431,2.145830
9779000,0.0324,0.013523,0.002678,0.000431,2.191195
9780000,0.0324,0.013523,0.002678,0.000431,1.986579
9781000,0.0324,0.013523,0.002678,0.000431,2.060152
9782000,0.0324,0.013523,0.002678,0.000431,2.039349
9783000,0.0324,0.013523,0.002678,0.000431,2.141128
9784000,0.0324,0.013523,0.002678,0.000431,2.277814
9785000,0.0324,0.013523,0.002678,0.000431,2.124204
9786000,0.0324,0.013523,0.002678,0.000431,2.269939
9787000,0.0324,0.013523,0.002678,0.000431,2.065088
9788000,0.0324,0.013523,0.002678,0.000431,1.867523
9789000,0.0324,0.013523,0.002678,0.000431,1.996804
9790000,0.0324,0.013523,0.002678,0.000431,2.145947
9791000,0.0324,0.013523,0.002678,0.000431,2.046753
9792000,0.0324,0.013523,0.002678,0.000431,2.076253
9793000,0.0324,0.013523,0.002678,0.000431,2.060152
9794000,0.0324,0.013523,0.002678,0.000431,2.114214
9795000,0.0324,0.013523,0.002678,0.000431,2.096703
9796000,0.0324,0.013523,0.002678,0.000431,2.236561
9797000,0.0324,0.013523,0.002678,0.000431,1.996921
9798000,0.0324,0.013523,0.002678,0.000431,2.043110
9799000,0.0324,0.013523,0.002678,0.000431,2.111746
9800000,0.0324,0.013523,0.002678,0.000431,1.905602
9801000,0.0324,0.013523,0.002678,0.000431,2.084010
9802000,0.0324,0.013523,0.002678,0.000431,2.013023
9803000,0.0324,0.013523,0.002678,0.000431,2.080601
9804000,0.0324,0.013523,0.002678,0.000431,2.162283
9805000,0.0324,0.013523,0.002678,0.000431,2.028419
9806000,0.0324,0.013523,0.002678,0.000431,2.158052
9807000,0.0324,0.013523,0.002678,0.000431,2.169100
9808000,0.0324,0.013523,0.002678,0.000431,1.970948
9809000,0.0324,0.013523,0.002678,0.000431,2.019369
9810000,0.0324,0.013523,0.002678,0.000431,2.310839
9811000,0.0324,0.013523,0.002678,0.000431,2.103284
9812000,0.0324,0.013523,0.002678,0.000431,2.002798
9813000,0.0324,0.013523,0.002678,0.000431,1.965541
9814000,0.0324,0.013523,0.002678,0.000431,2.190490
9815000,0.0324,0.013523,0.002678,0.000431,2.185672
9816000,0.0324,0.013523,0.002678,0.000431,2.054393
9817000,0.0324,0.013523,0.002678,0.000431,2.289331
9818000,0.0324,0.013523,0.002678,0.000431,2.066263
9819000,0.0324,0.013523,0.002678,0.000431,2.111746
9820000,0.0324,0.013523,0.002678,0.000431,2.127025
9821000,0.0324,0.013523,0.002678,0.000431,2.151353
9822000,0.0324,0.013523,0.002678,0.000431,2.055803
9823000,0.0324,0.013523,0.002678,0.000431,2.153704
9824000,0.0324,0.013523,0.002678,0.000431,2.180618
9825000,0.0324,0.013523,0.002678,0.000431,2.128788
9826000,0.0324,0.013523,0.002678,0.000431,2.099171
9827000,0.0324,0.013523,0.002678,0.000431,2.127143
9828000,0.0324,0.013523,0.002678,0.000431,1.923466
9829000,0.0324,0.013523,0.002678,0.000431,2.017136
9830000,0.0324,0.013523,0.002678,0.000431,2.213878
9831000,0.0324,0.013523,0.002678,0.000431,2.022778
9832000,0.0324,0.013523,0.002678,0.000431,2.130551
9833000,0.0324,0.013523,0.002678,0.000431,2.073080
9834000,0.0324,0.013523,0.002678,0.000431,2.085890
9835000,0.0324,0.013523,0.002678,0.000431,2.045225
9836000,0.0324,0.013523,0.002678,0.000431,2.156525
9837000,0.0324,0.013523,0.002678,0.000431,2.004443
9838000,0.0324,0.013523,0.002678,0.000431,2.207884
9839000,0.0324,0.013523,0.002678,0.000431,1.993866
9840000,0.0324,0.013523,0.002678,0.000431,2.035000
9841000,0.0324,0.013523,0.002678,0.000431,2.070964
9842000,0.0324,0.013523,0.002678,0.000431,2.044755
9843000,0.0324,0.013523,0.002678,0.000431,2.051925
9844000,0.0324,0.013523,0.002678,0.000431,2.008087
9845000,0.0324,0.013523,0.002678,0.000431,1.906190
9846000,0.0324,0.013523,0.002678,0.000431,2.076018
9847000,0.0324,0.013523,0.002678,0.000431,2.114332
9848000,0.0324,0.013523,0.002678,0.000431,2.269117
9849000,0.0324,0.013523,0.002678,0.000431,2.107750
9850000,0.0324,0.013523,0.002678,0.000431,2.042170
9851000,0.0324,0.013523,0.002678,0.000431,1.969537
9852000,0.0324,0.013523,0.002678,0.000431,1.847425
9853000,0.0324,0.013523,0.002678,0.000431,1.877865
9854000,0.0324,0.013523,0.002678,0.000431,1.971183
9855000,0.0324,0.013523,0.002678,0.000431,2.117153
9856000,0.0324,0.013523,0.002678,0.000431,1.972475
9857000,0.0324,0.013523,0.002678,0.000431,2.112334
9858000,0.0324,0.013523,0.002678,0.000431,1.989752
9859000,0.0324,0.013523,0.002678,0.000431,2.144184
9860000,0.0324,0.013523,0.002678,0.000431,2.235033
9861000,0.0324,0.013523,0.002678,0.000431,2.203418
9862000,0.0324,0.013523,0.002678,0.000431,2.031240
9863000,0.0324,0.013523,0.002678,0.000431,2.098113
9864000,0.0324,0.013523,0.002678,0.000431,1.984581
9865000,0.0324,0.013523,0.002678,0.000431,1.935807
9866000,0.0324,0.013523,0.002678,0.000431,2.026068
9867000,0.0324,0.013523,0.002678,0.000431,2.049692
9868000,0.0324,0.013523,0.002678,0.000431,2.100464
9869000,0.0324,0.013523,0.002678,0.000431,2.142421
9870000,0.0324,0.013523,0.002678,0.000431,2.182498
9871000,0.0324,0.013523,0.002678,0.000431,2.030887
9872000,0.0324,0.013523,0.002678,0.000431,2.083540
9873000,0.0324,0.013523,0.002678,0.000431,2.096115
9874000,0.0324,0.013523,0.002678,0.000431,2.089181
9875000,0.0324,0.013523,0.002678,0.000431,2.060034
9876000,0.0324,0.013523,0.002678,0.000431,1.986814
9877000,0.0324,0.013523,0.002678,0.000431,2.119503
9878000,0.0324,0.013523,0.002678,0.000431,2.047106
9879000,0.0324,0.013523,0.002678,0.000431,2.105752
9880000,0.0324,0.013523,0.002678,0.000431,2.066028
9881000,0.0324,0.013523,0.002678,0.000431,2.007969
9882000,0.0324,0.013523,0.002678,0.000431,2.121619
9883000,0.0324,0.013523,0.002678,0.000431,1.975179
9884000,0.0324,0.013523,0.002678,0.000431,1.877983
9885000,0.0324,0.013523,0.002678,0.000431,2.070612
9886000,0.0324,0.013523,0.002678,0.000431,2.053687
9887000,0.0324,0.013523,0.002678,0.000431,2.061679
9888000,0.0324,0.013523,0.002678,0.000431,2.047223
9889000,0.0324,0.013523,0.002678,0.000431,1.967892
9890000,0.0324,0.013523,0.002678,0.000431,2.102462
9891000,0.0324,0.013523,0.002678,0.000431,1.826153
9892000,0.0324,0.013523,0.002678,0.000431,1.911713
9893000,0.0324,0.013523,0.002678,0.000431,1.888678
9894000,0.0324,0.013523,0.002678,0.000431,1.804175
9895000,0.0324,0.013523,0.002678,0.000431,1.777379
9896000,0.0324,0.013523,0.002678,0.000431,1.880333
9897000,0.0324,0.013523,0.002678,0.000431,2.045813
9898000,0.0324,0.013523,0.002678,0.000431,1.933926
9899000,0.0324,0.013523,0.002678,0.000431,1.886680
9900000,0.0324,0.013523,0.002678,0.000431,1.849188
9901000,0.0324,0.013523,0.002678,0.000431,1.926522
9902000,0.0324,0.013523,0.002678,0.000431,1.951320
9903000,0.0324,0.013523,0.002678,0.000431,1.932398
9904000,0.0324,0.013523,0.002678,0.000431,2.013610
9905000,0.0324,0.013523,0.002678,0.000431,2.040054
9906000,0.0324,0.013523,0.002678,0.000431,1.944269
9907000,0.0324,0.013523,0.002678,0.000431,1.938862
9908000,0.0324,0.013523,0.002678,0.000431,1.753285
9909000,0.0324,0.013523,0.002678,0.000431,1.921468
9910000,0.0324,0.013523,0.002678,0.000431,2.014198
9911000,0.0324,0.013523,0.002678,0.000431,1.991045
9912000,0.0324,0.013523,0.002678,0.000431,2.048751
9913000,0.0324,0.013523,0.002678,0.000431,1.946384
9914000,0.0324,0.013523,0.002678,0.000431,1.803000
9915000,0.0324,0.013523,0.002678,0.000431,2.014433
9916000,0.0324,0.013523,0.002678,0.000431,1.818514
9917000,0.0324,0.013523,0.002678,0.000431,1.906072
9918000,0.0324,0.013523,0.002678,0.000431,1.861646
9919000,0.0324,0.013523,0.002678,0.000431,2.056156
9920000,0.0324,0.013523,0.002678,0.000431,1.951908
9921000,0.0324,0.013523,0.002678,0.000431,1.809464
9922000,0.0324,0.013523,0.002678,0.000431,2.002798
9923000,0.0324,0.013523,0.002678,0.000431,1.990105
9924000,0.0324,0.013523,0.002678,0.000431,1.920763
9925000,0.0324,0.013523,0.002678,0.000431,2.044755
9926000,0.0324,0.013523,0.002678,0.000431,2.137955
9927000,0.0324,0.013523,0.002678,0.000431,2.013023
9928000,0.0324,0.013523,0.002678,0.000431,1.862822
9929000,0.0324,0.013523,0.002678,0.000431,1.711093
9930000,0.0324,0.013523,0.002678,0.000431,1.859648
9931000,0.0324,0.013523,0.002678,0.000431,1.740945
9932000,0.0324,0.013523,0.002678,0.000431,1.774676
9933000,0.0324,0.013523,0.002678,0.000431,1.833322
9934000,0.0324,0.013523,0.002678,0.000431,1.926875
9935000,0.0324,0.013523,0.002678,0.000431,1.879041
9936000,0.0324,0.013523,0.002678,0.000431,1.836143
9937000,0.0324,0.013523,0.002678,0.000431,2.031945
9938000,0.0324,0.013523,0.002678,0.000431,1.793715
9939000,0.0324,0.013523,0.002678,0.000431,1.794655
9940000,0.0324,0.013523,0.002678,0.000431,1.755754
9941000,0.0324,0.013523,0.002678,0.000431,1.812285
9942000,0.0324,0.013523,0.002678,0.000431,1.831912
9943000,0.0324,0.013523,0.002678,0.000431,1.937217
9944000,0.0324,0.013523,0.002678,0.000431,1.632819
9945000,0.0324,0.013523,0.002678,0.000431,1.848366
9946000,0.0324,0.013523,0.002678,0.000431,1.654092
9947000,0.0324,0.013523,0.002678,0.000431,1.791129
9948000,0.0324,0.013523,0.002678,0.000431,1.864585
9949000,0.0324,0.013523,0.002678,0.000431,1.882096
9950000,0.0324,0.013523,0.002678,0.000431,1.723198
9951000,0.0324,0.013523,0.002678,0.000431,1.681123
9952000,0.0324,0.013523,0.002678,0.000431,1.617658
9953000,0.0324,0.013523,0.002678,0.000431,1.616483
9954000,0.0324,0.013523,0.002678,0.000431,1.655620
9955000,0.0324,0.013523,0.002678,0.000431,1.633994
9956000,0.0324,0.013523,0.002678,0.000431,1.712621
9957000,0.0324,0.013523,0.002678,0.000431,1.738007
9958000,0.0324,0.013523,0.002678,0.000431,1.738947
9959000,0.0324,0.013523,0.002678,0.000431,1.676657
9960000,0.0324,0.013523,0.002678,0.000431,1.663729
9961000,0.0324,0.013523,0.002678,0.000431,1.643397
9962000,0.0324,0.013523,0.002678,0.000431,1.707920
9963000,0.0324,0.013523,0.002678,0.000431,1.689115
9964000,0.0324,0.013523,0.002678,0.000431,1.662201
9965000,0.0324,0.013523,0.002678,0.000431,1.626708
9966000,0.0324,0.013523,0.002678,0.000431,1.695932
9967000,0.0324,0.013523,0.002678,0.000431,1.797358
9968000,0.0324,0.013523,0.002678,0.000431,1.653034
9969000,0.0324,0.013523,0.002678,0.000431,1.587218
9970000,0.0324,0.013523,0.002678,0.000431,1.632466
9971000,0.0324,0.013523,0.002678,0.000431,1.508827
9972000,0.0324,0.013523,0.002678,0.000431,1.630939
9973000,0.0324,0.013523,0.002678,0.000431,1.635287
9974000,0.0324,0.013523,0.002678,0.000431,1.700515
9975000,0.0324,0.013523,0.002678,0.000431,1.737067
9976000,0.0324,0.013523,0.002678,0.000431,1.554780
9977000,0.0324,0.013523,0.002678,0.000431,1.544790
9978000,0.0324,0.013523,0.002678,0.000431,1.700280
9979000,0.0324,0.013523,0.002678,0.000431,1.611781
9980000,0.0324,0.013523,0.002678,0.000431,1.690995
9981000,0.0324,0.013523,0.002678,0.000431,1.780317
9982000,0.0324,0.013523,0.002678,0.000431,1.595915
9983000,0.0324,0.013523,0.002678,0.000431,1.656325
9984000,0.0324,0.013523,0.002678,0.000431,1.720260
9985000,0.0324,0.013523,0.002678,0.000431,1.724491
9986000,0.0324,0.013523,0.002678,0.000431,1.722611
9987000,0.0324,0.013523,0.002678,0.000431,1.756811
9988000,0.0324,0.013523,0.002678,0.000431,1.704629
9989000,0.0324,0.013523,0.002678,0.000431,1.794655
9990000,0.0324,0.013523,0.002678,0.000431,1.797358
9991000,0.0324,0.013523,0.002678,0.000431,1.633994
9992000,0.0324,0.013523,0.002678,0.000431,1.723198
9993000,0.0324,0.013523,0.002678,0.000431,1.862117
9994000,0.0324,0.013523,0.002678,0.000431,1.720378
9995000,0.0324,0.013523,0.002678,0.000431,1.811697
9996000,0.0324,0.013523,0.002678,0.000431,1.991985
9997000,0.0324,0.013523,0.002678,0.000431,1.860001
9998000,0.0324,0.013523,0.002678,0.000431,1.828268
9999000,0.0324,0.013523,0.002678,0.000431,1.971653
