Cycle,Area(mm^2),PeakDynamic(W),SubthresholdLeakage(W),GateLeakage(W),RunTimeDynamic(W)
6000000,0.0324,0.013523,0.002678,0.000431,0.043015
6001000,0.0324,0.013523,0.002678,0.000431,0.039137
6002000,0.0324,0.013523,0.002678,0.000431,0.038784
6003000,0.0324,0.013523,0.002678,0.000431,0.040077
6004000,0.0324,0.013523,0.002678,0.000431,0.039842
6005000,0.0324,0.013523,0.002678,0.000431,0.038902
6006000,0.0324,0.013523,0.002678,0.000431,0.040195
6007000,0.0324,0.013523,0.002678,0.000431,0.039019
6008000,0.0324,0.013523,0.002678,0.000431,0.039960
6009000,0.0324,0.013523,0.002678,0.000431,0.039607
6010000,0.0324,0.013523,0.002678,0.000431,0.039725
6011000,0.0324,0.013523,0.002678,0.000431,0.041252
6012000,0.0324,0.013523,0.002678,0.000431,0.041252
6013000,0.0324,0.013523,0.002678,0.000431,0.038432
6014000,0.0324,0.013523,0.002678,0.000431,0.038079
6015000,0.0324,0.013523,0.002678,0.000431,0.038197
6016000,0.0324,0.013523,0.002678,0.000431,0.044308
6017000,0.0324,0.013523,0.002678,0.000431,0.039489
6018000,0.0324,0.013523,0.002678,0.000431,0.039960
6019000,0.0324,0.013523,0.002678,0.000431,0.040782
6020000,0.0324,0.013523,0.002678,0.000431,0.041017
6021000,0.0324,0.013523,0.002678,0.000431,0.038197
6022000,0.0324,0.013523,0.002678,0.000431,0.039960
6023000,0.0324,0.013523,0.002678,0.000431,0.040900
6024000,0.0324,0.013523,0.002678,0.000431,0.038314
6025000,0.0324,0.013523,0.002678,0.000431,0.036316
6026000,0.0324,0.013523,0.002678,0.000431,0.039725
6027000,0.0324,0.013523,0.002678,0.000431,0.041135
6028000,0.0324,0.013523,0.002678,0.000431,0.040547
6029000,0.0324,0.013523,0.002678,0.000431,0.039019
6030000,0.0324,0.013523,0.002678,0.000431,0.039254
6031000,0.0324,0.013523,0.002678,0.000431,0.039137
6032000,0.0324,0.013523,0.002678,0.000431,0.041840
6033000,0.0324,0.013523,0.002678,0.000431,0.039137
6034000,0.0324,0.013523,0.002678,0.000431,0.038314
6035000,0.0324,0.013523,0.002678,0.000431,0.039137
6036000,0.0324,0.013523,0.002678,0.000431,0.040077
6037000,0.0324,0.013523,0.002678,0.000431,0.040430
6038000,0.0324,0.013523,0.002678,0.000431,0.038784
6039000,0.0324,0.013523,0.002678,0.000431,0.040900
6040000,0.0324,0.013523,0.002678,0.000431,0.040547
6041000,0.0324,0.013523,0.002678,0.000431,0.036904
6042000,0.0324,0.013523,0.002678,0.000431,0.041135
6043000,0.0324,0.013523,0.002678,0.000431,0.038784
6044000,0.0324,0.013523,0.002678,0.000431,0.040665
6045000,0.0324,0.013523,0.002678,0.000431,0.037374
6046000,0.0324,0.013523,0.002678,0.000431,0.039607
6047000,0.0324,0.013523,0.002678,0.000431,0.039372
6048000,0.0324,0.013523,0.002678,0.000431,0.038432
6049000,0.0324,0.013523,0.002678,0.000431,0.039489
6050000,0.0324,0.013523,0.002678,0.000431,0.037727
6051000,0.0324,0.013523,0.002678,0.000431,0.039372
6052000,0.0324,0.013523,0.002678,0.000431,0.038902
6053000,0.0324,0.013523,0.002678,0.000431,0.040665
6054000,0.0324,0.013523,0.002678,0.000431,0.037021
6055000,0.0324,0.013523,0.002678,0.000431,0.039019
6056000,0.0324,0.013523,0.002678,0.000431,0.039960
6057000,0.0324,0.013523,0.002678,0.000431,0.041017
6058000,0.0324,0.013523,0.002678,0.000431,0.039489
6059000,0.0324,0.013523,0.002678,0.000431,0.038079
6060000,0.0324,0.013523,0.002678,0.000431,0.037962
6061000,0.0324,0.013523,0.002678,0.000431,0.042075
6062000,0.0324,0.013523,0.002678,0.000431,0.037021
6063000,0.0324,0.013523,0.002678,0.000431,0.038079
6064000,0.0324,0.013523,0.002678,0.000431,0.040195
6065000,0.0324,0.013523,0.002678,0.000431,0.038784
6066000,0.0324,0.013523,0.002678,0.000431,0.037844
6067000,0.0324,0.013523,0.002678,0.000431,0.038432
6068000,0.0324,0.013523,0.002678,0.000431,0.039960
6069000,0.0324,0.013523,0.002678,0.000431,0.040195
6070000,0.0324,0.013523,0.002678,0.000431,0.037374
6071000,0.0324,0.013523,0.002678,0.000431,0.037491
6072000,0.0324,0.013523,0.002678,0.000431,0.040547
6073000,0.0324,0.013523,0.002678,0.000431,0.039489
6074000,0.0324,0.013523,0.002678,0.000431,0.039137
6075000,0.0324,0.013523,0.002678,0.000431,0.037021
6076000,0.0324,0.013523,0.002678,0.000431,0.036669
6077000,0.0324,0.013523,0.002678,0.000431,0.038784
6078000,0.0324,0.013523,0.002678,0.000431,0.039019
6079000,0.0324,0.013523,0.002678,0.000431,0.036434
6080000,0.0324,0.013523,0.002678,0.000431,0.037374
6081000,0.0324,0.013523,0.002678,0.000431,0.038197
6082000,0.0324,0.013523,0.002678,0.000431,0.039725
6083000,0.0324,0.013523,0.002678,0.000431,0.035964
6084000,0.0324,0.013523,0.002678,0.000431,0.038902
6085000,0.0324,0.013523,0.002678,0.000431,0.039960
6086000,0.0324,0.013523,0.002678,0.000431,0.038432
6087000,0.0324,0.013523,0.002678,0.000431,0.040077
6088000,0.0324,0.013523,0.002678,0.000431,0.040312
6089000,0.0324,0.013523,0.002678,0.000431,0.036904
6090000,0.0324,0.013523,0.002678,0.000431,0.039372
6091000,0.0324,0.013523,0.002678,0.000431,0.039842
6092000,0.0324,0.013523,0.002678,0.000431,0.035494
6093000,0.0324,0.013523,0.002678,0.000431,0.039019
6094000,0.0324,0.013523,0.002678,0.000431,0.038197
6095000,0.0324,0.013523,0.002678,0.000431,0.041135
6096000,0.0324,0.013523,0.002678,0.000431,0.038902
6097000,0.0324,0.013523,0.002678,0.000431,0.037139
6098000,0.0324,0.013523,0.002678,0.000431,0.040782
6099000,0.0324,0.013523,0.002678,0.000431,0.039137
6100000,0.0324,0.013523,0.002678,0.000431,0.038432
6101000,0.0324,0.013523,0.002678,0.000431,0.035846
6102000,0.0324,0.013523,0.002678,0.000431,0.038784
6103000,0.0324,0.013523,0.002678,0.000431,0.038314
6104000,0.0324,0.013523,0.002678,0.000431,0.039372
6105000,0.0324,0.013523,0.002678,0.000431,0.037139
6106000,0.0324,0.013523,0.002678,0.000431,0.037962
6107000,0.0324,0.013523,0.002678,0.000431,0.040665
6108000,0.0324,0.013523,0.002678,0.000431,0.038079
6109000,0.0324,0.013523,0.002678,0.000431,0.036434
6110000,0.0324,0.013523,0.002678,0.000431,0.037491
6111000,0.0324,0.013523,0.002678,0.000431,0.039842
6112000,0.0324,0.013523,0.002678,0.000431,0.039607
6113000,0.0324,0.013523,0.002678,0.000431,0.038549
6114000,0.0324,0.013523,0.002678,0.000431,0.040430
6115000,0.0324,0.013523,0.002678,0.000431,0.036786
6116000,0.0324,0.013523,0.002678,0.000431,0.038197
6117000,0.0324,0.013523,0.002678,0.000431,0.037256
6118000,0.0324,0.013523,0.002678,0.000431,0.040430
6119000,0.0324,0.013523,0.002678,0.000431,0.037844
6120000,0.0324,0.013523,0.002678,0.000431,0.034436
6121000,0.0324,0.013523,0.002678,0.000431,0.039607
6122000,0.0324,0.013523,0.002678,0.000431,0.037374
6123000,0.0324,0.013523,0.002678,0.000431,0.038197
6124000,0.0324,0.013523,0.002678,0.000431,0.039254
6125000,0.0324,0.013523,0.002678,0.000431,0.038197
6126000,0.0324,0.013523,0.002678,0.000431,0.038314
6127000,0.0324,0.013523,0.002678,0.000431,0.039019
6128000,0.0324,0.013523,0.002678,0.000431,0.039489
6129000,0.0324,0.013523,0.002678,0.000431,0.039254
6130000,0.0324,0.013523,0.002678,0.000431,0.036904
6131000,0.0324,0.013523,0.002678,0.000431,0.038667
6132000,0.0324,0.013523,0.002678,0.000431,0.040077
6133000,0.0324,0.013523,0.002678,0.000431,0.037374
6134000,0.0324,0.013523,0.002678,0.000431,0.039607
6135000,0.0324,0.013523,0.002678,0.000431,0.036551
6136000,0.0324,0.013523,0.002678,0.000431,0.040077
6137000,0.0324,0.013523,0.002678,0.000431,0.036551
6138000,0.0324,0.013523,0.002678,0.000431,0.041958
6139000,0.0324,0.013523,0.002678,0.000431,0.038197
6140000,0.0324,0.013523,0.002678,0.000431,0.038549
6141000,0.0324,0.013523,0.002678,0.000431,0.039372
6142000,0.0324,0.013523,0.002678,0.000431,0.036199
6143000,0.0324,0.013523,0.002678,0.000431,0.036669
6144000,0.0324,0.013523,0.002678,0.000431,0.039372
6145000,0.0324,0.013523,0.002678,0.000431,0.037727
6146000,0.0324,0.013523,0.002678,0.000431,0.035494
6147000,0.0324,0.013523,0.002678,0.000431,0.039607
6148000,0.0324,0.013523,0.002678,0.000431,0.037021
6149000,0.0324,0.013523,0.002678,0.000431,0.042193
6150000,0.0324,0.013523,0.002678,0.000431,0.036904
6151000,0.0324,0.013523,0.002678,0.000431,0.038549
6152000,0.0324,0.013523,0.002678,0.000431,0.042310
6153000,0.0324,0.013523,0.002678,0.000431,0.037609
6154000,0.0324,0.013523,0.002678,0.000431,0.038079
6155000,0.0324,0.013523,0.002678,0.000431,0.038079
6156000,0.0324,0.013523,0.002678,0.000431,0.037491
6157000,0.0324,0.013523,0.002678,0.000431,0.041135
6158000,0.0324,0.013523,0.002678,0.000431,0.034788
6159000,0.0324,0.013523,0.002678,0.000431,0.040077
6160000,0.0324,0.013523,0.002678,0.000431,0.039960
6161000,0.0324,0.013523,0.002678,0.000431,0.039607
6162000,0.0324,0.013523,0.002678,0.000431,0.037962
6163000,0.0324,0.013523,0.002678,0.000431,0.036904
6164000,0.0324,0.013523,0.002678,0.000431,0.038197
6165000,0.0324,0.013523,0.002678,0.000431,0.041487
6166000,0.0324,0.013523,0.002678,0.000431,0.036434
6167000,0.0324,0.013523,0.002678,0.000431,0.036669
6168000,0.0324,0.013523,0.002678,0.000431,0.040665
6169000,0.0324,0.013523,0.002678,0.000431,0.038079
6170000,0.0324,0.013523,0.002678,0.000431,0.039372
6171000,0.0324,0.013523,0.002678,0.000431,0.039607
6172000,0.0324,0.013523,0.002678,0.000431,0.038902
6173000,0.0324,0.013523,0.002678,0.000431,0.039254
6174000,0.0324,0.013523,0.002678,0.000431,0.036434
6175000,0.0324,0.013523,0.002678,0.000431,0.039019
6176000,0.0324,0.013523,0.002678,0.000431,0.040312
6177000,0.0324,0.013523,0.002678,0.000431,0.036081
6178000,0.0324,0.013523,0.002678,0.000431,0.038902
6179000,0.0324,0.013523,0.002678,0.000431,0.039725
6180000,0.0324,0.013523,0.002678,0.000431,0.038667
6181000,0.0324,0.013523,0.002678,0.000431,0.040665
6182000,0.0324,0.013523,0.002678,0.000431,0.038902
6183000,0.0324,0.013523,0.002678,0.000431,0.037844
6184000,0.0324,0.013523,0.002678,0.000431,0.037962
6185000,0.0324,0.013523,0.002678,0.000431,0.040900
6186000,0.0324,0.013523,0.002678,0.000431,0.039489
6187000,0.0324,0.013523,0.002678,0.000431,0.039019
6188000,0.0324,0.013523,0.002678,0.000431,0.038784
6189000,0.0324,0.013523,0.002678,0.000431,0.039725
6190000,0.0324,0.013523,0.002678,0.000431,0.038197
6191000,0.0324,0.013523,0.002678,0.000431,0.039019
6192000,0.0324,0.013523,0.002678,0.000431,0.038902
6193000,0.0324,0.013523,0.002678,0.000431,0.037727
6194000,0.0324,0.013523,0.002678,0.000431,0.041017
6195000,0.0324,0.013523,0.002678,0.000431,0.036081
6196000,0.0324,0.013523,0.002678,0.000431,0.041135
6197000,0.0324,0.013523,0.002678,0.000431,0.039372
6198000,0.0324,0.013523,0.002678,0.000431,0.037727
6199000,0.0324,0.013523,0.002678,0.000431,0.039960
6200000,0.0324,0.013523,0.002678,0.000431,0.037609
6201000,0.0324,0.013523,0.002678,0.000431,0.037491
6202000,0.0324,0.013523,0.002678,0.000431,0.040782
6203000,0.0324,0.013523,0.002678,0.000431,0.036551
6204000,0.0324,0.013523,0.002678,0.000431,0.036904
6205000,0.0324,0.013523,0.002678,0.000431,0.038549
6206000,0.0324,0.013523,0.002678,0.000431,0.039254
6207000,0.0324,0.013523,0.002678,0.000431,0.039489
6208000,0.0324,0.013523,0.002678,0.000431,0.037609
6209000,0.0324,0.013523,0.002678,0.000431,0.036199
6210000,0.0324,0.013523,0.002678,0.000431,0.041370
6211000,0.0324,0.013523,0.002678,0.000431,0.036199
6212000,0.0324,0.013523,0.002678,0.000431,0.040430
6213000,0.0324,0.013523,0.002678,0.000431,0.037491
6214000,0.0324,0.013523,0.002678,0.000431,0.036434
6215000,0.0324,0.013523,0.002678,0.000431,0.039254
6216000,0.0324,0.013523,0.002678,0.000431,0.038784
6217000,0.0324,0.013523,0.002678,0.000431,0.040900
6218000,0.0324,0.013523,0.002678,0.000431,0.037139
6219000,0.0324,0.013523,0.002678,0.000431,0.037609
6220000,0.0324,0.013523,0.002678,0.000431,0.037844
6221000,0.0324,0.013523,0.002678,0.000431,0.037491
6222000,0.0324,0.013523,0.002678,0.000431,0.041252
6223000,0.0324,0.013523,0.002678,0.000431,0.038549
6224000,0.0324,0.013523,0.002678,0.000431,0.037139
6225000,0.0324,0.013523,0.002678,0.000431,0.035964
6226000,0.0324,0.013523,0.002678,0.000431,0.039019
6227000,0.0324,0.013523,0.002678,0.000431,0.038784
6228000,0.0324,0.013523,0.002678,0.000431,0.038667
6229000,0.0324,0.013523,0.002678,0.000431,0.038432
6230000,0.0324,0.013523,0.002678,0.000431,0.038197
6231000,0.0324,0.013523,0.002678,0.000431,0.039489
6232000,0.0324,0.013523,0.002678,0.000431,0.037139
6233000,0.0324,0.013523,0.002678,0.000431,0.037021
6234000,0.0324,0.013523,0.002678,0.000431,0.040430
6235000,0.0324,0.013523,0.002678,0.000431,0.037491
6236000,0.0324,0.013523,0.002678,0.000431,0.037609
6237000,0.0324,0.013523,0.002678,0.000431,0.038667
6238000,0.0324,0.013523,0.002678,0.000431,0.039372
6239000,0.0324,0.013523,0.002678,0.000431,0.037844
6240000,0.0324,0.013523,0.002678,0.000431,0.038197
6241000,0.0324,0.013523,0.002678,0.000431,0.038079
6242000,0.0324,0.013523,0.002678,0.000431,0.039137
6243000,0.0324,0.013523,0.002678,0.000431,0.036669
6244000,0.0324,0.013523,0.002678,0.000431,0.038667
6245000,0.0324,0.013523,0.002678,0.000431,0.037727
6246000,0.0324,0.013523,0.002678,0.000431,0.038902
6247000,0.0324,0.013523,0.002678,0.000431,0.038197
6248000,0.0324,0.013523,0.002678,0.000431,0.036904
6249000,0.0324,0.013523,0.002678,0.000431,0.038902
6250000,0.0324,0.013523,0.002678,0.000431,0.040900
6251000,0.0324,0.013523,0.002678,0.000431,0.036786
6252000,0.0324,0.013523,0.002678,0.000431,0.039137
6253000,0.0324,0.013523,0.002678,0.000431,0.037139
6254000,0.0324,0.013523,0.002678,0.000431,0.038079
6255000,0.0324,0.013523,0.002678,0.000431,0.036551
6256000,0.0324,0.013523,0.002678,0.000431,0.038667
6257000,0.0324,0.013523,0.002678,0.000431,0.037374
6258000,0.0324,0.013523,0.002678,0.000431,0.036669
6259000,0.0324,0.013523,0.002678,0.000431,0.039489
6260000,0.0324,0.013523,0.002678,0.000431,0.037491
6261000,0.0324,0.013523,0.002678,0.000431,0.035846
6262000,0.0324,0.013523,0.002678,0.000431,0.040195
6263000,0.0324,0.013523,0.002678,0.000431,0.038314
6264000,0.0324,0.013523,0.002678,0.000431,0.037727
6265000,0.0324,0.013523,0.002678,0.000431,0.038549
6266000,0.0324,0.013523,0.002678,0.000431,0.036551
6267000,0.0324,0.013523,0.002678,0.000431,0.037374
6268000,0.0324,0.013523,0.002678,0.000431,0.038432
6269000,0.0324,0.013523,0.002678,0.000431,0.037139
6270000,0.0324,0.013523,0.002678,0.000431,0.036904
6271000,0.0324,0.013523,0.002678,0.000431,0.035141
6272000,0.0324,0.013523,0.002678,0.000431,0.037021
6273000,0.0324,0.013523,0.002678,0.000431,0.039137
6274000,0.0324,0.013523,0.002678,0.000431,0.037139
6275000,0.0324,0.013523,0.002678,0.000431,0.038549
6276000,0.0324,0.013523,0.002678,0.000431,0.036786
6277000,0.0324,0.013523,0.002678,0.000431,0.037256
6278000,0.0324,0.013523,0.002678,0.000431,0.038432
6279000,0.0324,0.013523,0.002678,0.000431,0.036904
6280000,0.0324,0.013523,0.002678,0.000431,0.035846
6281000,0.0324,0.013523,0.002678,0.000431,0.037374
6282000,0.0324,0.013523,0.002678,0.000431,0.033260
6283000,0.0324,0.013523,0.002678,0.000431,0.037962
6284000,0.0324,0.013523,0.002678,0.000431,0.037727
6285000,0.0324,0.013523,0.002678,0.000431,0.037962
6286000,0.0324,0.013523,0.002678,0.000431,0.036316
6287000,0.0324,0.013523,0.002678,0.000431,0.034318
6288000,0.0324,0.013523,0.002678,0.000431,0.036199
6289000,0.0324,0.013523,0.002678,0.000431,0.037374
6290000,0.0324,0.013523,0.002678,0.000431,0.036669
6291000,0.0324,0.013523,0.002678,0.000431,0.034436
6292000,0.0324,0.013523,0.002678,0.000431,0.038902
6293000,0.0324,0.013523,0.002678,0.000431,0.032790
6294000,0.0324,0.013523,0.002678,0.000431,0.037256
6295000,0.0324,0.013523,0.002678,0.000431,0.035729
6296000,0.0324,0.013523,0.002678,0.000431,0.036434
6297000,0.0324,0.013523,0.002678,0.000431,0.037374
6298000,0.0324,0.013523,0.002678,0.000431,0.036316
6299000,0.0324,0.013523,0.002678,0.000431,0.036316
6300000,0.0324,0.013523,0.002678,0.000431,0.035964
6301000,0.0324,0.013523,0.002678,0.000431,0.034553
6302000,0.0324,0.013523,0.002678,0.000431,0.032790
6303000,0.0324,0.013523,0.002678,0.000431,0.032673
6304000,0.0324,0.013523,0.002678,0.000431,0.034318
6305000,0.0324,0.013523,0.002678,0.000431,0.037609
6306000,0.0324,0.013523,0.002678,0.000431,0.033731
6307000,0.0324,0.013523,0.002678,0.000431,0.033143
6308000,0.0324,0.013523,0.002678,0.000431,0.036669
6309000,0.0324,0.013523,0.002678,0.000431,0.038549
6310000,0.0324,0.013523,0.002678,0.000431,0.034788
6311000,0.0324,0.013523,0.002678,0.000431,0.034436
6312000,0.0324,0.013523,0.002678,0.000431,0.036199
6313000,0.0324,0.013523,0.002678,0.000431,0.036081
6314000,0.0324,0.013523,0.002678,0.000431,0.035611
6315000,0.0324,0.013523,0.002678,0.000431,0.036316
6316000,0.0324,0.013523,0.002678,0.000431,0.036669
6317000,0.0324,0.013523,0.002678,0.000431,0.036316
6318000,0.0324,0.013523,0.002678,0.000431,0.034906
6319000,0.0324,0.013523,0.002678,0.000431,0.034906
6320000,0.0324,0.013523,0.002678,0.000431,0.035258
6321000,0.0324,0.013523,0.002678,0.000431,0.036904
6322000,0.0324,0.013523,0.002678,0.000431,0.034436
6323000,0.0324,0.013523,0.002678,0.000431,0.035023
6324000,0.0324,0.013523,0.002678,0.000431,0.036434
6325000,0.0324,0.013523,0.002678,0.000431,0.035611
6326000,0.0324,0.013523,0.002678,0.000431,0.034906
6327000,0.0324,0.013523,0.002678,0.000431,0.036199
6328000,0.0324,0.013523,0.002678,0.000431,0.035611
6329000,0.0324,0.013523,0.002678,0.000431,0.037256
6330000,0.0324,0.013523,0.002678,0.000431,0.036081
6331000,0.0324,0.013523,0.002678,0.000431,0.033496
6332000,0.0324,0.013523,0.002678,0.000431,0.036081
6333000,0.0324,0.013523,0.002678,0.000431,0.035023
6334000,0.0324,0.013523,0.002678,0.000431,0.033025
6335000,0.0324,0.013523,0.002678,0.000431,0.036081
6336000,0.0324,0.013523,0.002678,0.000431,0.033496
6337000,0.0324,0.013523,0.002678,0.000431,0.035023
6338000,0.0324,0.013523,0.002678,0.000431,0.032790
6339000,0.0324,0.013523,0.002678,0.000431,0.035258
6340000,0.0324,0.013523,0.002678,0.000431,0.032790
6341000,0.0324,0.013523,0.002678,0.000431,0.035141
6342000,0.0324,0.013523,0.002678,0.000431,0.035258
6343000,0.0324,0.013523,0.002678,0.000431,0.034436
6344000,0.0324,0.013523,0.002678,0.000431,0.032085
6345000,0.0324,0.013523,0.002678,0.000431,0.034201
6346000,0.0324,0.013523,0.002678,0.000431,0.033966
6347000,0.0324,0.013523,0.002678,0.000431,0.032908
6348000,0.0324,0.013523,0.002678,0.000431,0.036081
6349000,0.0324,0.013523,0.002678,0.000431,0.034671
6350000,0.0324,0.013523,0.002678,0.000431,0.033731
6351000,0.0324,0.013523,0.002678,0.000431,0.034671
6352000,0.0324,0.013523,0.002678,0.000431,0.033260
6353000,0.0324,0.013523,0.002678,0.000431,0.035611
6354000,0.0324,0.013523,0.002678,0.000431,0.030792
6355000,0.0324,0.013523,0.002678,0.000431,0.033143
6356000,0.0324,0.013523,0.002678,0.000431,0.035023
6357000,0.0324,0.013523,0.002678,0.000431,0.033025
6358000,0.0324,0.013523,0.002678,0.000431,0.033731
6359000,0.0324,0.013523,0.002678,0.000431,0.035964
6360000,0.0324,0.013523,0.002678,0.000431,0.034083
6361000,0.0324,0.013523,0.002678,0.000431,0.035258
6362000,0.0324,0.013523,0.002678,0.000431,0.033613
6363000,0.0324,0.013523,0.002678,0.000431,0.033378
6364000,0.0324,0.013523,0.002678,0.000431,0.033731
6365000,0.0324,0.013523,0.002678,0.000431,0.033025
6366000,0.0324,0.013523,0.002678,0.000431,0.034201
6367000,0.0324,0.013523,0.002678,0.000431,0.033378
6368000,0.0324,0.013523,0.002678,0.000431,0.033848
6369000,0.0324,0.013523,0.002678,0.000431,0.034553
6370000,0.0324,0.013523,0.002678,0.000431,0.033966
6371000,0.0324,0.013523,0.002678,0.000431,0.032438
6372000,0.0324,0.013523,0.002678,0.000431,0.035494
6373000,0.0324,0.013523,0.002678,0.000431,0.032320
6374000,0.0324,0.013523,0.002678,0.000431,0.031615
6375000,0.0324,0.013523,0.002678,0.000431,0.033496
6376000,0.0324,0.013523,0.002678,0.000431,0.034201
6377000,0.0324,0.013523,0.002678,0.000431,0.037374
6378000,0.0324,0.013523,0.002678,0.000431,0.029735
6379000,0.0324,0.013523,0.002678,0.000431,0.034201
6380000,0.0324,0.013523,0.002678,0.000431,0.033966
6381000,0.0324,0.013523,0.002678,0.000431,0.033966
6382000,0.0324,0.013523,0.002678,0.000431,0.033260
6383000,0.0324,0.013523,0.002678,0.000431,0.032085
6384000,0.0324,0.013523,0.002678,0.000431,0.035611
6385000,0.0324,0.013523,0.002678,0.000431,0.031850
6386000,0.0324,0.013523,0.002678,0.000431,0.033966
6387000,0.0324,0.013523,0.002678,0.000431,0.033143
6388000,0.0324,0.013523,0.002678,0.000431,0.034671
6389000,0.0324,0.013523,0.002678,0.000431,0.031615
6390000,0.0324,0.013523,0.002678,0.000431,0.033378
6391000,0.0324,0.013523,0.002678,0.000431,0.036904
6392000,0.0324,0.013523,0.002678,0.000431,0.032438
6393000,0.0324,0.013523,0.002678,0.000431,0.035494
6394000,0.0324,0.013523,0.002678,0.000431,0.033143
6395000,0.0324,0.013523,0.002678,0.000431,0.034553
6396000,0.0324,0.013523,0.002678,0.000431,0.034318
6397000,0.0324,0.013523,0.002678,0.000431,0.033613
6398000,0.0324,0.013523,0.002678,0.000431,0.034318
6399000,0.0324,0.013523,0.002678,0.000431,0.034788
6400000,0.0324,0.013523,0.002678,0.000431,0.035846
6401000,0.0324,0.013523,0.002678,0.000431,0.033378
6402000,0.0324,0.013523,0.002678,0.000431,0.033731
6403000,0.0324,0.013523,0.002678,0.000431,0.034083
6404000,0.0324,0.013523,0.002678,0.000431,0.031968
6405000,0.0324,0.013523,0.002678,0.000431,0.034671
6406000,0.0324,0.013523,0.002678,0.000431,0.035846
6407000,0.0324,0.013523,0.002678,0.000431,0.035023
6408000,0.0324,0.013523,0.002678,0.000431,0.033496
6409000,0.0324,0.013523,0.002678,0.000431,0.034788
6410000,0.0324,0.013523,0.002678,0.000431,0.033025
6411000,0.0324,0.013523,0.002678,0.000431,0.032438
6412000,0.0324,0.013523,0.002678,0.000431,0.032320
6413000,0.0324,0.013523,0.002678,0.000431,0.033025
6414000,0.0324,0.013523,0.002678,0.000431,0.036786
6415000,0.0324,0.013523,0.002678,0.000431,0.034083
6416000,0.0324,0.013523,0.002678,0.000431,0.032320
6417000,0.0324,0.013523,0.002678,0.000431,0.033966
6418000,0.0324,0.013523,0.002678,0.000431,0.033966
6419000,0.0324,0.013523,0.002678,0.000431,0.034671
6420000,0.0324,0.013523,0.002678,0.000431,0.033143
6421000,0.0324,0.013523,0.002678,0.000431,0.033378
6422000,0.0324,0.013523,0.002678,0.000431,0.034906
6423000,0.0324,0.013523,0.002678,0.000431,0.033260
6424000,0.0324,0.013523,0.002678,0.000431,0.031968
6425000,0.0324,0.013523,0.002678,0.000431,0.032555
6426000,0.0324,0.013523,0.002678,0.000431,0.035376
6427000,0.0324,0.013523,0.002678,0.000431,0.033496
6428000,0.0324,0.013523,0.002678,0.000431,0.033378
6429000,0.0324,0.013523,0.002678,0.000431,0.033848
6430000,0.0324,0.013523,0.002678,0.000431,0.035258
6431000,0.0324,0.013523,0.002678,0.000431,0.033260
6432000,0.0324,0.013523,0.002678,0.000431,0.034318
6433000,0.0324,0.013523,0.002678,0.000431,0.034201
6434000,0.0324,0.013523,0.002678,0.000431,0.034083
6435000,0.0324,0.013523,0.002678,0.000431,0.032203
6436000,0.0324,0.013523,0.002678,0.000431,0.032555
6437000,0.0324,0.013523,0.002678,0.000431,0.035494
6438000,0.0324,0.013523,0.002678,0.000431,0.034553
6439000,0.0324,0.013523,0.002678,0.000431,0.031027
6440000,0.0324,0.013523,0.002678,0.000431,0.032790
6441000,0.0324,0.013523,0.002678,0.000431,0.033966
6442000,0.0324,0.013523,0.002678,0.000431,0.034906
6443000,0.0324,0.013523,0.002678,0.000431,0.034083
6444000,0.0324,0.013523,0.002678,0.000431,0.032908
6445000,0.0324,0.013523,0.002678,0.000431,0.033260
6446000,0.0324,0.013523,0.002678,0.000431,0.034788
6447000,0.0324,0.013523,0.002678,0.000431,0.035846
6448000,0.0324,0.013523,0.002678,0.000431,0.032790
6449000,0.0324,0.013523,0.002678,0.000431,0.033731
6450000,0.0324,0.013523,0.002678,0.000431,0.034436
6451000,0.0324,0.013523,0.002678,0.000431,0.034671
6452000,0.0324,0.013523,0.002678,0.000431,0.033966
6453000,0.0324,0.013523,0.002678,0.000431,0.033613
6454000,0.0324,0.013523,0.002678,0.000431,0.034553
6455000,0.0324,0.013523,0.002678,0.000431,0.032320
6456000,0.0324,0.013523,0.002678,0.000431,0.033613
6457000,0.0324,0.013523,0.002678,0.000431,0.035141
6458000,0.0324,0.013523,0.002678,0.000431,0.032908
6459000,0.0324,0.013523,0.002678,0.000431,0.031733
6460000,0.0324,0.013523,0.002678,0.000431,0.032790
6461000,0.0324,0.013523,0.002678,0.000431,0.032790
6462000,0.0324,0.013523,0.002678,0.000431,0.031615
6463000,0.0324,0.013523,0.002678,0.000431,0.035023
6464000,0.0324,0.013523,0.002678,0.000431,0.034436
6465000,0.0324,0.013523,0.002678,0.000431,0.031145
6466000,0.0324,0.013523,0.002678,0.000431,0.034201
6467000,0.0324,0.013523,0.002678,0.000431,0.033496
6468000,0.0324,0.013523,0.002678,0.000431,0.033731
6469000,0.0324,0.013523,0.002678,0.000431,0.032320
6470000,0.0324,0.013523,0.002678,0.000431,0.029617
6471000,0.0324,0.013523,0.002678,0.000431,0.035376
6472000,0.0324,0.013523,0.002678,0.000431,0.033025
6473000,0.0324,0.013523,0.002678,0.000431,0.033496
6474000,0.0324,0.013523,0.002678,0.000431,0.033143
6475000,0.0324,0.013523,0.002678,0.000431,0.033378
6476000,0.0324,0.013523,0.002678,0.000431,0.033025
6477000,0.0324,0.013523,0.002678,0.000431,0.032908
6478000,0.0324,0.013523,0.002678,0.000431,0.033731
6479000,0.0324,0.013523,0.002678,0.000431,0.033848
6480000,0.0324,0.013523,0.002678,0.000431,0.036904
6481000,0.0324,0.013523,0.002678,0.000431,0.030440
6482000,0.0324,0.013523,0.002678,0.000431,0.031615
6483000,0.0324,0.013523,0.002678,0.000431,0.034083
6484000,0.0324,0.013523,0.002678,0.000431,0.035611
6485000,0.0324,0.013523,0.002678,0.000431,0.030557
6486000,0.0324,0.013523,0.002678,0.000431,0.034318
6487000,0.0324,0.013523,0.002678,0.000431,0.034906
6488000,0.0324,0.013523,0.002678,0.000431,0.035376
6489000,0.0324,0.013523,0.002678,0.000431,0.033143
6490000,0.0324,0.013523,0.002678,0.000431,0.032203
6491000,0.0324,0.013523,0.002678,0.000431,0.034083
6492000,0.0324,0.013523,0.002678,0.000431,0.032555
6493000,0.0324,0.013523,0.002678,0.000431,0.035141
6494000,0.0324,0.013523,0.002678,0.000431,0.034671
6495000,0.0324,0.013523,0.002678,0.000431,0.033025
6496000,0.0324,0.013523,0.002678,0.000431,0.031850
6497000,0.0324,0.013523,0.002678,0.000431,0.035141
6498000,0.0324,0.013523,0.002678,0.000431,0.031498
6499000,0.0324,0.013523,0.002678,0.000431,0.033848
6500000,0.0324,0.013523,0.002678,0.000431,0.033848
6501000,0.0324,0.013523,0.002678,0.000431,0.033260
6502000,0.0324,0.013523,0.002678,0.000431,0.031733
6503000,0.0324,0.013523,0.002678,0.000431,0.030557
6504000,0.0324,0.013523,0.002678,0.000431,0.034553
6505000,0.0324,0.013523,0.002678,0.000431,0.036081
6506000,0.0324,0.013523,0.002678,0.000431,0.031615
6507000,0.0324,0.013523,0.002678,0.000431,0.033143
6508000,0.0324,0.013523,0.002678,0.000431,0.033966
6509000,0.0324,0.013523,0.002678,0.000431,0.034671
6510000,0.0324,0.013523,0.002678,0.000431,0.034553
6511000,0.0324,0.013523,0.002678,0.000431,0.032320
6512000,0.0324,0.013523,0.002678,0.000431,0.033496
6513000,0.0324,0.013523,0.002678,0.000431,0.036786
6514000,0.0324,0.013523,0.002678,0.000431,0.033143
6515000,0.0324,0.013523,0.002678,0.000431,0.034201
6516000,0.0324,0.013523,0.002678,0.000431,0.034553
6517000,0.0324,0.013523,0.002678,0.000431,0.033731
6518000,0.0324,0.013523,0.002678,0.000431,0.034671
6519000,0.0324,0.013523,0.002678,0.000431,0.031262
6520000,0.0324,0.013523,0.002678,0.000431,0.035494
6521000,0.0324,0.013523,0.002678,0.000431,0.035964
6522000,0.0324,0.013523,0.002678,0.000431,0.033260
6523000,0.0324,0.013523,0.002678,0.000431,0.034083
6524000,0.0324,0.013523,0.002678,0.000431,0.034553
6525000,0.0324,0.013523,0.002678,0.000431,0.033731
6526000,0.0324,0.013523,0.002678,0.000431,0.032908
6527000,0.0324,0.013523,0.002678,0.000431,0.029382
6528000,0.0324,0.013523,0.002678,0.000431,0.034318
6529000,0.0324,0.013523,0.002678,0.000431,0.033025
6530000,0.0324,0.013523,0.002678,0.000431,0.034083
6531000,0.0324,0.013523,0.002678,0.000431,0.034083
6532000,0.0324,0.013523,0.002678,0.000431,0.031498
6533000,0.0324,0.013523,0.002678,0.000431,0.033260
6534000,0.0324,0.013523,0.002678,0.000431,0.032203
6535000,0.0324,0.013523,0.002678,0.000431,0.033260
6536000,0.0324,0.013523,0.002678,0.000431,0.033613
6537000,0.0324,0.013523,0.002678,0.000431,0.032673
6538000,0.0324,0.013523,0.002678,0.000431,0.031498
6539000,0.0324,0.013523,0.002678,0.000431,0.032790
6540000,0.0324,0.013523,0.002678,0.000431,0.036551
6541000,0.0324,0.013523,0.002678,0.000431,0.034906
6542000,0.0324,0.013523,0.002678,0.000431,0.030910
6543000,0.0324,0.013523,0.002678,0.000431,0.032203
6544000,0.0324,0.013523,0.002678,0.000431,0.034553
6545000,0.0324,0.013523,0.002678,0.000431,0.033143
6546000,0.0324,0.013523,0.002678,0.000431,0.033966
6547000,0.0324,0.013523,0.002678,0.000431,0.032085
6548000,0.0324,0.013523,0.002678,0.000431,0.031968
6549000,0.0324,0.013523,0.002678,0.000431,0.032790
6550000,0.0324,0.013523,0.002678,0.000431,0.032673
6551000,0.0324,0.013523,0.002678,0.000431,0.033143
6552000,0.0324,0.013523,0.002678,0.000431,0.033966
6553000,0.0324,0.013523,0.002678,0.000431,0.029735
6554000,0.0324,0.013523,0.002678,0.000431,0.033143
6555000,0.0324,0.013523,0.002678,0.000431,0.032908
6556000,0.0324,0.013523,0.002678,0.000431,0.034436
6557000,0.0324,0.013523,0.002678,0.000431,0.030792
6558000,0.0324,0.013523,0.002678,0.000431,0.030792
6559000,0.0324,0.013523,0.002678,0.000431,0.029852
6560000,0.0324,0.013523,0.002678,0.000431,0.034906
6561000,0.0324,0.013523,0.002678,0.000431,0.030440
6562000,0.0324,0.013523,0.002678,0.000431,0.032555
6563000,0.0324,0.013523,0.002678,0.000431,0.030205
6564000,0.0324,0.013523,0.002678,0.000431,0.034906
6565000,0.0324,0.013523,0.002678,0.000431,0.032555
6566000,0.0324,0.013523,0.002678,0.000431,0.031262
6567000,0.0324,0.013523,0.002678,0.000431,0.032790
6568000,0.0324,0.013523,0.002678,0.000431,0.031850
6569000,0.0324,0.013523,0.002678,0.000431,0.030910
6570000,0.0324,0.013523,0.002678,0.000431,0.032908
6571000,0.0324,0.013523,0.002678,0.000431,0.032320
6572000,0.0324,0.013523,0.002678,0.000431,0.033143
6573000,0.0324,0.013523,0.002678,0.000431,0.030792
6574000,0.0324,0.013523,0.002678,0.000431,0.032673
6575000,0.0324,0.013523,0.002678,0.000431,0.031968
6576000,0.0324,0.013523,0.002678,0.000431,0.033143
6577000,0.0324,0.013523,0.002678,0.000431,0.031498
6578000,0.0324,0.013523,0.002678,0.000431,0.031498
6579000,0.0324,0.013523,0.002678,0.000431,0.030910
6580000,0.0324,0.013523,0.002678,0.000431,0.031145
6581000,0.0324,0.013523,0.002678,0.000431,0.032790
6582000,0.0324,0.013523,0.002678,0.000431,0.034906
6583000,0.0324,0.013523,0.002678,0.000431,0.032203
6584000,0.0324,0.013523,0.002678,0.000431,0.030440
6585000,0.0324,0.013523,0.002678,0.000431,0.033378
6586000,0.0324,0.013523,0.002678,0.000431,0.032908
6587000,0.0324,0.013523,0.002678,0.000431,0.030087
6588000,0.0324,0.013523,0.002678,0.000431,0.033025
6589000,0.0324,0.013523,0.002678,0.000431,0.031968
6590000,0.0324,0.013523,0.002678,0.000431,0.032085
6591000,0.0324,0.013523,0.002678,0.000431,0.032438
6592000,0.0324,0.013523,0.002678,0.000431,0.031262
6593000,0.0324,0.013523,0.002678,0.000431,0.034083
6594000,0.0324,0.013523,0.002678,0.000431,0.032908
6595000,0.0324,0.013523,0.002678,0.000431,0.031262
6596000,0.0324,0.013523,0.002678,0.000431,0.032203
6597000,0.0324,0.013523,0.002678,0.000431,0.033848
6598000,0.0324,0.013523,0.002678,0.000431,0.031850
6599000,0.0324,0.013523,0.002678,0.000431,0.030557
6600000,0.0324,0.013523,0.002678,0.000431,0.032908
6601000,0.0324,0.013523,0.002678,0.000431,0.035494
6602000,0.0324,0.013523,0.002678,0.000431,0.032320
6603000,0.0324,0.013523,0.002678,0.000431,0.029382
6604000,0.0324,0.013523,0.002678,0.000431,0.031380
6605000,0.0324,0.013523,0.002678,0.000431,0.034201
6606000,0.0324,0.013523,0.002678,0.000431,0.031498
6607000,0.0324,0.013523,0.002678,0.000431,0.033025
6608000,0.0324,0.013523,0.002678,0.000431,0.033025
6609000,0.0324,0.013523,0.002678,0.000431,0.032203
6610000,0.0324,0.013523,0.002678,0.000431,0.031262
6611000,0.0324,0.013523,0.002678,0.000431,0.033378
6612000,0.0324,0.013523,0.002678,0.000431,0.035376
6613000,0.0324,0.013523,0.002678,0.000431,0.032908
6614000,0.0324,0.013523,0.002678,0.000431,0.031262
6615000,0.0324,0.013523,0.002678,0.000431,0.031733
6616000,0.0324,0.013523,0.002678,0.000431,0.032673
6617000,0.0324,0.013523,0.002678,0.000431,0.032555
6618000,0.0324,0.013523,0.002678,0.000431,0.031027
6619000,0.0324,0.013523,0.002678,0.000431,0.033848
6620000,0.0324,0.013523,0.002678,0.000431,0.031380
6621000,0.0324,0.013523,0.002678,0.000431,0.029735
6622000,0.0324,0.013523,0.002678,0.000431,0.031498
6623000,0.0324,0.013523,0.002678,0.000431,0.031968
6624000,0.0324,0.013523,0.002678,0.000431,0.031733
6625000,0.0324,0.013523,0.002678,0.000431,0.030675
6626000,0.0324,0.013523,0.002678,0.000431,0.032790
6627000,0.0324,0.013523,0.002678,0.000431,0.033496
6628000,0.0324,0.013523,0.002678,0.000431,0.032673
6629000,0.0324,0.013523,0.002678,0.000431,0.031262
6630000,0.0324,0.013523,0.002678,0.000431,0.031850
6631000,0.0324,0.013523,0.002678,0.000431,0.031498
6632000,0.0324,0.013523,0.002678,0.000431,0.032555
6633000,0.0324,0.013523,0.002678,0.000431,0.029852
6634000,0.0324,0.013523,0.002678,0.000431,0.031615
6635000,0.0324,0.013523,0.002678,0.000431,0.033260
6636000,0.0324,0.013523,0.002678,0.000431,0.031027
6637000,0.0324,0.013523,0.002678,0.000431,0.032320
6638000,0.0324,0.013523,0.002678,0.000431,0.030910
6639000,0.0324,0.013523,0.002678,0.000431,0.033731
6640000,0.0324,0.013523,0.002678,0.000431,0.031850
6641000,0.0324,0.013523,0.002678,0.000431,0.028677
6642000,0.0324,0.013523,0.002678,0.000431,0.031968
6643000,0.0324,0.013523,0.002678,0.000431,0.033848
6644000,0.0324,0.013523,0.002678,0.000431,0.030910
6645000,0.0324,0.013523,0.002678,0.000431,0.030675
6646000,0.0324,0.013523,0.002678,0.000431,0.028207
6647000,0.0324,0.013523,0.002678,0.000431,0.033496
6648000,0.0324,0.013523,0.002678,0.000431,0.031027
6649000,0.0324,0.013523,0.002678,0.000431,0.029735
6650000,0.0324,0.013523,0.002678,0.000431,0.033025
6651000,0.0324,0.013523,0.002678,0.000431,0.032438
6652000,0.0324,0.013523,0.002678,0.000431,0.028207
6653000,0.0324,0.013523,0.002678,0.000431,0.031968
6654000,0.0324,0.013523,0.002678,0.000431,0.031850
6655000,0.0324,0.013523,0.002678,0.000431,0.031498
6656000,0.0324,0.013523,0.002678,0.000431,0.032203
6657000,0.0324,0.013523,0.002678,0.000431,0.030087
6658000,0.0324,0.013523,0.002678,0.000431,0.032790
6659000,0.0324,0.013523,0.002678,0.000431,0.030792
6660000,0.0324,0.013523,0.002678,0.000431,0.031733
6661000,0.0324,0.013523,0.002678,0.000431,0.030910
6662000,0.0324,0.013523,0.002678,0.000431,0.030087
6663000,0.0324,0.013523,0.002678,0.000431,0.031027
6664000,0.0324,0.013523,0.002678,0.000431,0.030440
6665000,0.0324,0.013523,0.002678,0.000431,0.031733
6666000,0.0324,0.013523,0.002678,0.000431,0.029382
6667000,0.0324,0.013523,0.002678,0.000431,0.032673
6668000,0.0324,0.013523,0.002678,0.000431,0.032203
6669000,0.0324,0.013523,0.002678,0.000431,0.031380
6670000,0.0324,0.013523,0.002678,0.000431,0.031733
6671000,0.0324,0.013523,0.002678,0.000431,0.032673
6672000,0.0324,0.013523,0.002678,0.000431,0.030440
6673000,0.0324,0.013523,0.002678,0.000431,0.030792
6674000,0.0324,0.013523,0.002678,0.000431,0.032555
6675000,0.0324,0.013523,0.002678,0.000431,0.032438
6676000,0.0324,0.013523,0.002678,0.000431,0.030322
6677000,0.0324,0.013523,0.002678,0.000431,0.031968
6678000,0.0324,0.013523,0.002678,0.000431,0.031615
6679000,0.0324,0.013523,0.002678,0.000431,0.033025
6680000,0.0324,0.013523,0.002678,0.000431,0.031850
6681000,0.0324,0.013523,0.002678,0.000431,0.030557
6682000,0.0324,0.013523,0.002678,0.000431,0.028324
6683000,0.0324,0.013523,0.002678,0.000431,0.031733
6684000,0.0324,0.013523,0.002678,0.000431,0.033496
6685000,0.0324,0.013523,0.002678,0.000431,0.033025
6686000,0.0324,0.013523,0.002678,0.000431,0.030910
6687000,0.0324,0.013523,0.002678,0.000431,0.033260
6688000,0.0324,0.013523,0.002678,0.000431,0.030792
6689000,0.0324,0.013523,0.002678,0.000431,0.034436
6690000,0.0324,0.013523,0.002678,0.000431,0.028794
6691000,0.0324,0.013523,0.002678,0.000431,0.032085
6692000,0.0324,0.013523,0.002678,0.000431,0.031498
6693000,0.0324,0.013523,0.002678,0.000431,0.029970
6694000,0.0324,0.013523,0.002678,0.000431,0.031262
6695000,0.0324,0.013523,0.002678,0.000431,0.030557
6696000,0.0324,0.013523,0.002678,0.000431,0.030910
6697000,0.0324,0.013523,0.002678,0.000431,0.030205
6698000,0.0324,0.013523,0.002678,0.000431,0.031262
6699000,0.0324,0.013523,0.002678,0.000431,0.031615
6700000,0.0324,0.013523,0.002678,0.000431,0.030910
6701000,0.0324,0.013523,0.002678,0.000431,0.033260
6702000,0.0324,0.013523,0.002678,0.000431,0.030440
6703000,0.0324,0.013523,0.002678,0.000431,0.031027
6704000,0.0324,0.013523,0.002678,0.000431,0.031498
6705000,0.0324,0.013523,0.002678,0.000431,0.032790
6706000,0.0324,0.013523,0.002678,0.000431,0.031733
6707000,0.0324,0.013523,0.002678,0.000431,0.030792
6708000,0.0324,0.013523,0.002678,0.000431,0.029852
6709000,0.0324,0.013523,0.002678,0.000431,0.031733
6710000,0.0324,0.013523,0.002678,0.000431,0.031850
6711000,0.0324,0.013523,0.002678,0.000431,0.032203
6712000,0.0324,0.013523,0.002678,0.000431,0.031145
6713000,0.0324,0.013523,0.002678,0.000431,0.029970
6714000,0.0324,0.013523,0.002678,0.000431,0.032555
6715000,0.0324,0.013523,0.002678,0.000431,0.032203
6716000,0.0324,0.013523,0.002678,0.000431,0.030910
6717000,0.0324,0.013523,0.002678,0.000431,0.032203
6718000,0.0324,0.013523,0.002678,0.000431,0.029735
6719000,0.0324,0.013523,0.002678,0.000431,0.031145
6720000,0.0324,0.013523,0.002678,0.000431,0.033025
6721000,0.0324,0.013523,0.002678,0.000431,0.032085
6722000,0.0324,0.013523,0.002678,0.000431,0.032203
6723000,0.0324,0.013523,0.002678,0.000431,0.030557
6724000,0.0324,0.013523,0.002678,0.000431,0.031262
6725000,0.0324,0.013523,0.002678,0.000431,0.033966
6726000,0.0324,0.013523,0.002678,0.000431,0.029970
6727000,0.0324,0.013523,0.002678,0.000431,0.030675
6728000,0.0324,0.013523,0.002678,0.000431,0.032438
6729000,0.0324,0.013523,0.002678,0.000431,0.031380
6730000,0.0324,0.013523,0.002678,0.000431,0.031027
6731000,0.0324,0.013523,0.002678,0.000431,0.031968
6732000,0.0324,0.013523,0.002678,0.000431,0.029265
6733000,0.0324,0.013523,0.002678,0.000431,0.033260
6734000,0.0324,0.013523,0.002678,0.000431,0.031262
6735000,0.0324,0.013523,0.002678,0.000431,0.030675
6736000,0.0324,0.013523,0.002678,0.000431,0.033613
6737000,0.0324,0.013523,0.002678,0.000431,0.030910
6738000,0.0324,0.013523,0.002678,0.000431,0.031262
6739000,0.0324,0.013523,0.002678,0.000431,0.030910
6740000,0.0324,0.013523,0.002678,0.000431,0.033260
6741000,0.0324,0.013523,0.002678,0.000431,0.031145
6742000,0.0324,0.013523,0.002678,0.000431,0.029500
6743000,0.0324,0.013523,0.002678,0.000431,0.029852
6744000,0.0324,0.013523,0.002678,0.000431,0.033848
6745000,0.0324,0.013523,0.002678,0.000431,0.030675
6746000,0.0324,0.013523,0.002678,0.000431,0.032555
6747000,0.0324,0.013523,0.002678,0.000431,0.031850
6748000,0.0324,0.013523,0.002678,0.000431,0.032320
6749000,0.0324,0.013523,0.002678,0.000431,0.030792
6750000,0.0324,0.013523,0.002678,0.000431,0.031262
6751000,0.0324,0.013523,0.002678,0.000431,0.033966
6752000,0.0324,0.013523,0.002678,0.000431,0.031968
6753000,0.0324,0.013523,0.002678,0.000431,0.031027
6754000,0.0324,0.013523,0.002678,0.000431,0.031262
6755000,0.0324,0.013523,0.002678,0.000431,0.030910
6756000,0.0324,0.013523,0.002678,0.000431,0.030557
6757000,0.0324,0.013523,0.002678,0.000431,0.031498
6758000,0.0324,0.013523,0.002678,0.000431,0.031145
6759000,0.0324,0.013523,0.002678,0.000431,0.029500
6760000,0.0324,0.013523,0.002678,0.000431,0.030910
6761000,0.0324,0.013523,0.002678,0.000431,0.033025
6762000,0.0324,0.013523,0.002678,0.000431,0.031850
6763000,0.0324,0.013523,0.002678,0.000431,0.031615
6764000,0.0324,0.013523,0.002678,0.000431,0.033025
6765000,0.0324,0.013523,0.002678,0.000431,0.030440
6766000,0.0324,0.013523,0.002678,0.000431,0.031027
6767000,0.0324,0.013523,0.002678,0.000431,0.033025
6768000,0.0324,0.013523,0.002678,0.000431,0.031615
6769000,0.0324,0.013523,0.002678,0.000431,0.031145
6770000,0.0324,0.013523,0.002678,0.000431,0.030557
6771000,0.0324,0.013523,0.002678,0.000431,0.031027
6772000,0.0324,0.013523,0.002678,0.000431,0.029500
6773000,0.0324,0.013523,0.002678,0.000431,0.031262
6774000,0.0324,0.013523,0.002678,0.000431,0.031615
6775000,0.0324,0.013523,0.002678,0.000431,0.031380
6776000,0.0324,0.013523,0.002678,0.000431,0.029147
6777000,0.0324,0.013523,0.002678,0.000431,0.032673
6778000,0.0324,0.013523,0.002678,0.000431,0.033143
6779000,0.0324,0.013523,0.002678,0.000431,0.030910
6780000,0.0324,0.013523,0.002678,0.000431,0.032085
6781000,0.0324,0.013523,0.002678,0.000431,0.031615
6782000,0.0324,0.013523,0.002678,0.000431,0.030675
6783000,0.0324,0.013523,0.002678,0.000431,0.031145
6784000,0.0324,0.013523,0.002678,0.000431,0.030440
6785000,0.0324,0.013523,0.002678,0.000431,0.030675
6786000,0.0324,0.013523,0.002678,0.000431,0.030792
6787000,0.0324,0.013523,0.002678,0.000431,0.031733
6788000,0.0324,0.013523,0.002678,0.000431,0.032203
6789000,0.0324,0.013523,0.002678,0.000431,0.029382
6790000,0.0324,0.013523,0.002678,0.000431,0.031615
6791000,0.0324,0.013523,0.002678,0.000431,0.031615
6792000,0.0324,0.013523,0.002678,0.000431,0.030792
6793000,0.0324,0.013523,0.002678,0.000431,0.031733
6794000,0.0324,0.013523,0.002678,0.000431,0.032203
6795000,0.0324,0.013523,0.002678,0.000431,0.030322
6796000,0.0324,0.013523,0.002678,0.000431,0.030557
6797000,0.0324,0.013523,0.002678,0.000431,0.033143
6798000,0.0324,0.013523,0.002678,0.000431,0.032320
6799000,0.0324,0.013523,0.002678,0.000431,0.029970
6800000,0.0324,0.013523,0.002678,0.000431,0.032320
6801000,0.0324,0.013523,0.002678,0.000431,0.032673
6802000,0.0324,0.013523,0.002678,0.000431,0.031145
6803000,0.0324,0.013523,0.002678,0.000431,0.032555
6804000,0.0324,0.013523,0.002678,0.000431,0.032555
6805000,0.0324,0.013523,0.002678,0.000431,0.032555
6806000,0.0324,0.013523,0.002678,0.000431,0.030322
6807000,0.0324,0.013523,0.002678,0.000431,0.032790
6808000,0.0324,0.013523,0.002678,0.000431,0.034436
6809000,0.0324,0.013523,0.002678,0.000431,0.030205
6810000,0.0324,0.013523,0.002678,0.000431,0.031380
6811000,0.0324,0.013523,0.002678,0.000431,0.029852
6812000,0.0324,0.013523,0.002678,0.000431,0.031262
6813000,0.0324,0.013523,0.002678,0.000431,0.028677
6814000,0.0324,0.013523,0.002678,0.000431,0.031498
6815000,0.0324,0.013523,0.002678,0.000431,0.029852
6816000,0.0324,0.013523,0.002678,0.000431,0.030322
6817000,0.0324,0.013523,0.002678,0.000431,0.031968
6818000,0.0324,0.013523,0.002678,0.000431,0.029500
6819000,0.0324,0.013523,0.002678,0.000431,0.031615
6820000,0.0324,0.013523,0.002678,0.000431,0.028207
6821000,0.0324,0.013523,0.002678,0.000431,0.031615
6822000,0.0324,0.013523,0.002678,0.000431,0.028912
6823000,0.0324,0.013523,0.002678,0.000431,0.030557
6824000,0.0324,0.013523,0.002678,0.000431,0.030322
6825000,0.0324,0.013523,0.002678,0.000431,0.030087
6826000,0.0324,0.013523,0.002678,0.000431,0.029382
6827000,0.0324,0.013523,0.002678,0.000431,0.030910
6828000,0.0324,0.013523,0.002678,0.000431,0.031615
6829000,0.0324,0.013523,0.002678,0.000431,0.030557
6830000,0.0324,0.013523,0.002678,0.000431,0.031850
6831000,0.0324,0.013523,0.002678,0.000431,0.028089
6832000,0.0324,0.013523,0.002678,0.000431,0.028794
6833000,0.0324,0.013523,0.002678,0.000431,0.028559
6834000,0.0324,0.013523,0.002678,0.000431,0.030557
6835000,0.0324,0.013523,0.002678,0.000431,0.031733
6836000,0.0324,0.013523,0.002678,0.000431,0.029147
6837000,0.0324,0.013523,0.002678,0.000431,0.030910
6838000,0.0324,0.013523,0.002678,0.000431,0.030675
6839000,0.0324,0.013523,0.002678,0.000431,0.029617
6840000,0.0324,0.013523,0.002678,0.000431,0.030322
6841000,0.0324,0.013523,0.002678,0.000431,0.030910
6842000,0.0324,0.013523,0.002678,0.000431,0.030087
6843000,0.0324,0.013523,0.002678,0.000431,0.030440
6844000,0.0324,0.013523,0.002678,0.000431,0.028912
6845000,0.0324,0.013523,0.002678,0.000431,0.031733
6846000,0.0324,0.013523,0.002678,0.000431,0.029147
6847000,0.0324,0.013523,0.002678,0.000431,0.031615
6848000,0.0324,0.013523,0.002678,0.000431,0.032438
6849000,0.0324,0.013523,0.002678,0.000431,0.029147
6850000,0.0324,0.013523,0.002678,0.000431,0.028089
6851000,0.0324,0.013523,0.002678,0.000431,0.030910
6852000,0.0324,0.013523,0.002678,0.000431,0.028324
6853000,0.0324,0.013523,0.002678,0.000431,0.030910
6854000,0.0324,0.013523,0.002678,0.000431,0.030675
6855000,0.0324,0.013523,0.002678,0.000431,0.030792
6856000,0.0324,0.013523,0.002678,0.000431,0.030792
6857000,0.0324,0.013523,0.002678,0.000431,0.031027
6858000,0.0324,0.013523,0.002678,0.000431,0.030910
6859000,0.0324,0.013523,0.002678,0.000431,0.028794
6860000,0.0324,0.013523,0.002678,0.000431,0.029382
6861000,0.0324,0.013523,0.002678,0.000431,0.032320
6862000,0.0324,0.013523,0.002678,0.000431,0.028677
6863000,0.0324,0.013523,0.002678,0.000431,0.030205
6864000,0.0324,0.013523,0.002678,0.000431,0.031027
6865000,0.0324,0.013523,0.002678,0.000431,0.031615
6866000,0.0324,0.013523,0.002678,0.000431,0.030440
6867000,0.0324,0.013523,0.002678,0.000431,0.028442
6868000,0.0324,0.013523,0.002678,0.000431,0.030675
6869000,0.0324,0.013523,0.002678,0.000431,0.031262
6870000,0.0324,0.013523,0.002678,0.000431,0.028442
6871000,0.0324,0.013523,0.002678,0.000431,0.030557
6872000,0.0324,0.013523,0.002678,0.000431,0.030910
6873000,0.0324,0.013523,0.002678,0.000431,0.031615
6874000,0.0324,0.013523,0.002678,0.000431,0.031615
6875000,0.0324,0.013523,0.002678,0.000431,0.031733
6876000,0.0324,0.013523,0.002678,0.000431,0.028677
6877000,0.0324,0.013523,0.002678,0.000431,0.029500
6878000,0.0324,0.013523,0.002678,0.000431,0.029265
6879000,0.0324,0.013523,0.002678,0.000431,0.030322
6880000,0.0324,0.013523,0.002678,0.000431,0.029500
6881000,0.0324,0.013523,0.002678,0.000431,0.031850
6882000,0.0324,0.013523,0.002678,0.000431,0.030675
6883000,0.0324,0.013523,0.002678,0.000431,0.029265
6884000,0.0324,0.013523,0.002678,0.000431,0.030205
6885000,0.0324,0.013523,0.002678,0.000431,0.030910
6886000,0.0324,0.013523,0.002678,0.000431,0.030087
6887000,0.0324,0.013523,0.002678,0.000431,0.032085
6888000,0.0324,0.013523,0.002678,0.000431,0.032555
6889000,0.0324,0.013523,0.002678,0.000431,0.032908
6890000,0.0324,0.013523,0.002678,0.000431,0.028089
6891000,0.0324,0.013523,0.002678,0.000431,0.028794
6892000,0.0324,0.013523,0.002678,0.000431,0.033848
6893000,0.0324,0.013523,0.002678,0.000431,0.027854
6894000,0.0324,0.013523,0.002678,0.000431,0.029970
6895000,0.0324,0.013523,0.002678,0.000431,0.029852
6896000,0.0324,0.013523,0.002678,0.000431,0.028794
6897000,0.0324,0.013523,0.002678,0.000431,0.028207
6898000,0.0324,0.013523,0.002678,0.000431,0.029500
6899000,0.0324,0.013523,0.002678,0.000431,0.032908
6900000,0.0324,0.013523,0.002678,0.000431,0.028559
6901000,0.0324,0.013523,0.002678,0.000431,0.030205
6902000,0.0324,0.013523,0.002678,0.000431,0.028559
6903000,0.0324,0.013523,0.002678,0.000431,0.029265
6904000,0.0324,0.013523,0.002678,0.000431,0.028912
6905000,0.0324,0.013523,0.002678,0.000431,0.032085
6906000,0.0324,0.013523,0.002678,0.000431,0.029735
6907000,0.0324,0.013523,0.002678,0.000431,0.031145
6908000,0.0324,0.013523,0.002678,0.000431,0.028677
6909000,0.0324,0.013523,0.002678,0.000431,0.031615
6910000,0.0324,0.013523,0.002678,0.000431,0.029970
6911000,0.0324,0.013523,0.002678,0.000431,0.030557
6912000,0.0324,0.013523,0.002678,0.000431,0.031850
6913000,0.0324,0.013523,0.002678,0.000431,0.029382
6914000,0.0324,0.013523,0.002678,0.000431,0.030440
6915000,0.0324,0.013523,0.002678,0.000431,0.030087
6916000,0.0324,0.013523,0.002678,0.000431,0.030440
6917000,0.0324,0.013523,0.002678,0.000431,0.029617
6918000,0.0324,0.013523,0.002678,0.000431,0.029735
6919000,0.0324,0.013523,0.002678,0.000431,0.030910
6920000,0.0324,0.013523,0.002678,0.000431,0.028677
6921000,0.0324,0.013523,0.002678,0.000431,0.027619
6922000,0.0324,0.013523,0.002678,0.000431,0.031145
6923000,0.0324,0.013523,0.002678,0.000431,0.028559
6924000,0.0324,0.013523,0.002678,0.000431,0.028324
6925000,0.0324,0.013523,0.002678,0.000431,0.030557
6926000,0.0324,0.013523,0.002678,0.000431,0.030557
6927000,0.0324,0.013523,0.002678,0.000431,0.029265
6928000,0.0324,0.013523,0.002678,0.000431,0.029382
6929000,0.0324,0.013523,0.002678,0.000431,0.030322
6930000,0.0324,0.013523,0.002678,0.000431,0.031027
6931000,0.0324,0.013523,0.002678,0.000431,0.030322
6932000,0.0324,0.013523,0.002678,0.000431,0.029970
6933000,0.0324,0.013523,0.002678,0.000431,0.029617
6934000,0.0324,0.013523,0.002678,0.000431,0.028677
6935000,0.0324,0.013523,0.002678,0.000431,0.032085
6936000,0.0324,0.013523,0.002678,0.000431,0.028677
6937000,0.0324,0.013523,0.002678,0.000431,0.030440
6938000,0.0324,0.013523,0.002678,0.000431,0.028089
6939000,0.0324,0.013523,0.002678,0.000431,0.031027
6940000,0.0324,0.013523,0.002678,0.000431,0.031027
6941000,0.0324,0.013523,0.002678,0.000431,0.029852
6942000,0.0324,0.013523,0.002678,0.000431,0.031145
6943000,0.0324,0.013523,0.002678,0.000431,0.028324
6944000,0.0324,0.013523,0.002678,0.000431,0.029852
6945000,0.0324,0.013523,0.002678,0.000431,0.029735
6946000,0.0324,0.013523,0.002678,0.000431,0.029852
6947000,0.0324,0.013523,0.002678,0.000431,0.029265
6948000,0.0324,0.013523,0.002678,0.000431,0.030087
6949000,0.0324,0.013523,0.002678,0.000431,0.032320
6950000,0.0324,0.013523,0.002678,0.000431,0.028677
6951000,0.0324,0.013523,0.002678,0.000431,0.030087
6952000,0.0324,0.013523,0.002678,0.000431,0.032085
6953000,0.0324,0.013523,0.002678,0.000431,0.029735
6954000,0.0324,0.013523,0.002678,0.000431,0.029852
6955000,0.0324,0.013523,0.002678,0.000431,0.029852
6956000,0.0324,0.013523,0.002678,0.000431,0.030205
6957000,0.0324,0.013523,0.002678,0.000431,0.030205
6958000,0.0324,0.013523,0.002678,0.000431,0.028207
6959000,0.0324,0.013523,0.002678,0.000431,0.030440
6960000,0.0324,0.013523,0.002678,0.000431,0.030440
6961000,0.0324,0.013523,0.002678,0.000431,0.029500
6962000,0.0324,0.013523,0.002678,0.000431,0.027854
6963000,0.0324,0.013523,0.002678,0.000431,0.031027
6964000,0.0324,0.013523,0.002678,0.000431,0.029617
6965000,0.0324,0.013523,0.002678,0.000431,0.032320
6966000,0.0324,0.013523,0.002678,0.000431,0.030087
6967000,0.0324,0.013523,0.002678,0.000431,0.028442
6968000,0.0324,0.013523,0.002678,0.000431,0.028442
6969000,0.0324,0.013523,0.002678,0.000431,0.029147
6970000,0.0324,0.013523,0.002678,0.000431,0.031262
6971000,0.0324,0.013523,0.002678,0.000431,0.029029
6972000,0.0324,0.013523,0.002678,0.000431,0.030087
6973000,0.0324,0.013523,0.002678,0.000431,0.027972
6974000,0.0324,0.013523,0.002678,0.000431,0.028324
6975000,0.0324,0.013523,0.002678,0.000431,0.030322
6976000,0.0324,0.013523,0.002678,0.000431,0.030792
6977000,0.0324,0.013523,0.002678,0.000431,0.030205
6978000,0.0324,0.013523,0.002678,0.000431,0.029617
6979000,0.0324,0.013523,0.002678,0.000431,0.029265
6980000,0.0324,0.013523,0.002678,0.000431,0.030910
6981000,0.0324,0.013523,0.002678,0.000431,0.028559
6982000,0.0324,0.013523,0.002678,0.000431,0.031027
6983000,0.0324,0.013523,0.002678,0.000431,0.030440
6984000,0.0324,0.013523,0.002678,0.000431,0.028207
6985000,0.0324,0.013523,0.002678,0.000431,0.029617
6986000,0.0324,0.013523,0.002678,0.000431,0.031615
6987000,0.0324,0.013523,0.002678,0.000431,0.030322
6988000,0.0324,0.013523,0.002678,0.000431,0.029265
6989000,0.0324,0.013523,0.002678,0.000431,0.031027
6990000,0.0324,0.013523,0.002678,0.000431,0.029852
6991000,0.0324,0.013523,0.002678,0.000431,0.030087
6992000,0.0324,0.013523,0.002678,0.000431,0.027854
6993000,0.0324,0.013523,0.002678,0.000431,0.030322
6994000,0.0324,0.013523,0.002678,0.000431,0.030087
6995000,0.0324,0.013523,0.002678,0.000431,0.030792
6996000,0.0324,0.013523,0.002678,0.000431,0.029500
6997000,0.0324,0.013523,0.002678,0.000431,0.032203
6998000,0.0324,0.013523,0.002678,0.000431,0.030440
6999000,0.0324,0.013523,0.002678,0.000431,0.029029
