Cycle,Area(mm^2),PeakDynamic(W),SubthresholdLeakage(W),GateLeakage(W),RunTimeDynamic(W)
15000000,0.0324,0.013523,0.002678,0.000431,0.005641
15001000,0.0324,0.013523,0.002678,0.000431,0.007169
15002000,0.0324,0.013523,0.002678,0.000431,0.006464
15003000,0.0324,0.013523,0.002678,0.000431,0.005876
15004000,0.0324,0.013523,0.002678,0.000431,0.007169
15005000,0.0324,0.013523,0.002678,0.000431,0.005994
15006000,0.0324,0.013523,0.002678,0.000431,0.005994
15007000,0.0324,0.013523,0.002678,0.000431,0.006229
15008000,0.0324,0.013523,0.002678,0.000431,0.006229
15009000,0.0324,0.013523,0.002678,0.000431,0.006699
15010000,0.0324,0.013523,0.002678,0.000431,0.006582
15011000,0.0324,0.013523,0.002678,0.000431,0.006229
15012000,0.0324,0.013523,0.002678,0.000431,0.005876
15013000,0.0324,0.013523,0.002678,0.000431,0.006582
15014000,0.0324,0.013523,0.002678,0.000431,0.006582
15015000,0.0324,0.013523,0.002678,0.000431,0.006229
15016000,0.0324,0.013523,0.002678,0.000431,0.006464
15017000,0.0324,0.013523,0.002678,0.000431,0.005994
15018000,0.0324,0.013523,0.002678,0.000431,0.006699
15019000,0.0324,0.013523,0.002678,0.000431,0.006229
15020000,0.0324,0.013523,0.002678,0.000431,0.006582
15021000,0.0324,0.013523,0.002678,0.000431,0.006582
15022000,0.0324,0.013523,0.002678,0.000431,0.006582
15023000,0.0324,0.013523,0.002678,0.000431,0.005876
15024000,0.0324,0.013523,0.002678,0.000431,0.006699
15025000,0.0324,0.013523,0.002678,0.000431,0.006111
15026000,0.0324,0.013523,0.002678,0.000431,0.005759
15027000,0.0324,0.013523,0.002678,0.000431,0.007052
15028000,0.0324,0.013523,0.002678,0.000431,0.006111
15029000,0.0324,0.013523,0.002678,0.000431,0.006582
15030000,0.0324,0.013523,0.002678,0.000431,0.006229
15031000,0.0324,0.013523,0.002678,0.000431,0.005641
15032000,0.0324,0.013523,0.002678,0.000431,0.005994
15033000,0.0324,0.013523,0.002678,0.000431,0.006582
15034000,0.0324,0.013523,0.002678,0.000431,0.006582
15035000,0.0324,0.013523,0.002678,0.000431,0.006347
15036000,0.0324,0.013523,0.002678,0.000431,0.005524
15037000,0.0324,0.013523,0.002678,0.000431,0.006347
15038000,0.0324,0.013523,0.002678,0.000431,0.006699
15039000,0.0324,0.013523,0.002678,0.000431,0.006934
15040000,0.0324,0.013523,0.002678,0.000431,0.005289
15041000,0.0324,0.013523,0.002678,0.000431,0.006817
15042000,0.0324,0.013523,0.002678,0.000431,0.005759
15043000,0.0324,0.013523,0.002678,0.000431,0.005759
15044000,0.0324,0.013523,0.002678,0.000431,0.006817
15045000,0.0324,0.013523,0.002678,0.000431,0.006347
15046000,0.0324,0.013523,0.002678,0.000431,0.005994
15047000,0.0324,0.013523,0.002678,0.000431,0.006229
15048000,0.0324,0.013523,0.002678,0.000431,0.007404
15049000,0.0324,0.013523,0.002678,0.000431,0.005524
15050000,0.0324,0.013523,0.002678,0.000431,0.006817
15051000,0.0324,0.013523,0.002678,0.000431,0.006934
15052000,0.0324,0.013523,0.002678,0.000431,0.006229
15053000,0.0324,0.013523,0.002678,0.000431,0.005994
15054000,0.0324,0.013523,0.002678,0.000431,0.006934
15055000,0.0324,0.013523,0.002678,0.000431,0.006229
15056000,0.0324,0.013523,0.002678,0.000431,0.006229
15057000,0.0324,0.013523,0.002678,0.000431,0.006229
15058000,0.0324,0.013523,0.002678,0.000431,0.006582
15059000,0.0324,0.013523,0.002678,0.000431,0.006347
15060000,0.0324,0.013523,0.002678,0.000431,0.005289
15061000,0.0324,0.013523,0.002678,0.000431,0.006934
15062000,0.0324,0.013523,0.002678,0.000431,0.006347
15063000,0.0324,0.013523,0.002678,0.000431,0.006229
15064000,0.0324,0.013523,0.002678,0.000431,0.005876
15065000,0.0324,0.013523,0.002678,0.000431,0.007287
15066000,0.0324,0.013523,0.002678,0.000431,0.006229
15067000,0.0324,0.013523,0.002678,0.000431,0.005994
15068000,0.0324,0.013523,0.002678,0.000431,0.006111
15069000,0.0324,0.013523,0.002678,0.000431,0.006934
15070000,0.0324,0.013523,0.002678,0.000431,0.006229
15071000,0.0324,0.013523,0.002678,0.000431,0.005876
15072000,0.0324,0.013523,0.002678,0.000431,0.007052
15073000,0.0324,0.013523,0.002678,0.000431,0.005994
15074000,0.0324,0.013523,0.002678,0.000431,0.005641
15075000,0.0324,0.013523,0.002678,0.000431,0.006934
15076000,0.0324,0.013523,0.002678,0.000431,0.006229
15077000,0.0324,0.013523,0.002678,0.000431,0.005994
15078000,0.0324,0.013523,0.002678,0.000431,0.006699
15079000,0.0324,0.013523,0.002678,0.000431,0.006111
15080000,0.0324,0.013523,0.002678,0.000431,0.006464
15081000,0.0324,0.013523,0.002678,0.000431,0.005876
15082000,0.0324,0.013523,0.002678,0.000431,0.006817
15083000,0.0324,0.013523,0.002678,0.000431,0.005994
15084000,0.0324,0.013523,0.002678,0.000431,0.006347
15085000,0.0324,0.013523,0.002678,0.000431,0.006464
15086000,0.0324,0.013523,0.002678,0.000431,0.005641
15087000,0.0324,0.013523,0.002678,0.000431,0.006699
15088000,0.0324,0.013523,0.002678,0.000431,0.006699
15089000,0.0324,0.013523,0.002678,0.000431,0.006464
15090000,0.0324,0.013523,0.002678,0.000431,0.006229
15091000,0.0324,0.013523,0.002678,0.000431,0.006464
15092000,0.0324,0.013523,0.002678,0.000431,0.006347
15093000,0.0324,0.013523,0.002678,0.000431,0.005641
15094000,0.0324,0.013523,0.002678,0.000431,0.006699
15095000,0.0324,0.013523,0.002678,0.000431,0.005994
15096000,0.0324,0.013523,0.002678,0.000431,0.006229
15097000,0.0324,0.013523,0.002678,0.000431,0.005759
15098000,0.0324,0.013523,0.002678,0.000431,0.006464
15099000,0.0324,0.013523,0.002678,0.000431,0.006464
15100000,0.0324,0.013523,0.002678,0.000431,0.005641
15101000,0.0324,0.013523,0.002678,0.000431,0.006347
15102000,0.0324,0.013523,0.002678,0.000431,0.006111
15103000,0.0324,0.013523,0.002678,0.000431,0.005406
15104000,0.0324,0.013523,0.002678,0.000431,0.005876
15105000,0.0324,0.013523,0.002678,0.000431,0.006229
15106000,0.0324,0.013523,0.002678,0.000431,0.006582
15107000,0.0324,0.013523,0.002678,0.000431,0.005994
15108000,0.0324,0.013523,0.002678,0.000431,0.006464
15109000,0.0324,0.013523,0.002678,0.000431,0.006111
15110000,0.0324,0.013523,0.002678,0.000431,0.006464
15111000,0.0324,0.013523,0.002678,0.000431,0.006111
15112000,0.0324,0.013523,0.002678,0.000431,0.006229
15113000,0.0324,0.013523,0.002678,0.000431,0.006817
15114000,0.0324,0.013523,0.002678,0.000431,0.006229
15115000,0.0324,0.013523,0.002678,0.000431,0.006464
15116000,0.0324,0.013523,0.002678,0.000431,0.006699
15117000,0.0324,0.013523,0.002678,0.000431,0.006111
15118000,0.0324,0.013523,0.002678,0.000431,0.006699
15119000,0.0324,0.013523,0.002678,0.000431,0.006229
15120000,0.0324,0.013523,0.002678,0.000431,0.006111
15121000,0.0324,0.013523,0.002678,0.000431,0.006229
15122000,0.0324,0.013523,0.002678,0.000431,0.005994
15123000,0.0324,0.013523,0.002678,0.000431,0.006111
15124000,0.0324,0.013523,0.002678,0.000431,0.006699
15125000,0.0324,0.013523,0.002678,0.000431,0.005641
15126000,0.0324,0.013523,0.002678,0.000431,0.005759
15127000,0.0324,0.013523,0.002678,0.000431,0.006699
15128000,0.0324,0.013523,0.002678,0.000431,0.006934
15129000,0.0324,0.013523,0.002678,0.000431,0.006582
15130000,0.0324,0.013523,0.002678,0.000431,0.005994
15131000,0.0324,0.013523,0.002678,0.000431,0.005641
15132000,0.0324,0.013523,0.002678,0.000431,0.006699
15133000,0.0324,0.013523,0.002678,0.000431,0.005876
15134000,0.0324,0.013523,0.002678,0.000431,0.006817
15135000,0.0324,0.013523,0.002678,0.000431,0.005759
15136000,0.0324,0.013523,0.002678,0.000431,0.006699
15137000,0.0324,0.013523,0.002678,0.000431,0.005994
15138000,0.0324,0.013523,0.002678,0.000431,0.006111
15139000,0.0324,0.013523,0.002678,0.000431,0.006582
15140000,0.0324,0.013523,0.002678,0.000431,0.005641
15141000,0.0324,0.013523,0.002678,0.000431,0.006347
15142000,0.0324,0.013523,0.002678,0.000431,0.005876
15143000,0.0324,0.013523,0.002678,0.000431,0.006934
15144000,0.0324,0.013523,0.002678,0.000431,0.006229
15145000,0.0324,0.013523,0.002678,0.000431,0.005876
15146000,0.0324,0.013523,0.002678,0.000431,0.005876
15147000,0.0324,0.013523,0.002678,0.000431,0.006699
15148000,0.0324,0.013523,0.002678,0.000431,0.006817
15149000,0.0324,0.013523,0.002678,0.000431,0.006347
15150000,0.0324,0.013523,0.002678,0.000431,0.006464
15151000,0.0324,0.013523,0.002678,0.000431,0.005876
15152000,0.0324,0.013523,0.002678,0.000431,0.005641
15153000,0.0324,0.013523,0.002678,0.000431,0.005759
15154000,0.0324,0.013523,0.002678,0.000431,0.006229
15155000,0.0324,0.013523,0.002678,0.000431,0.005994
15156000,0.0324,0.013523,0.002678,0.000431,0.005406
15157000,0.0324,0.013523,0.002678,0.000431,0.006111
15158000,0.0324,0.013523,0.002678,0.000431,0.006817
15159000,0.0324,0.013523,0.002678,0.000431,0.005994
15160000,0.0324,0.013523,0.002678,0.000431,0.005994
15161000,0.0324,0.013523,0.002678,0.000431,0.006229
15162000,0.0324,0.013523,0.002678,0.000431,0.005759
15163000,0.0324,0.013523,0.002678,0.000431,0.006347
15164000,0.0324,0.013523,0.002678,0.000431,0.006347
15165000,0.0324,0.013523,0.002678,0.000431,0.006817
15166000,0.0324,0.013523,0.002678,0.000431,0.005994
15167000,0.0324,0.013523,0.002678,0.000431,0.006464
15168000,0.0324,0.013523,0.002678,0.000431,0.006111
15169000,0.0324,0.013523,0.002678,0.000431,0.006111
15170000,0.0324,0.013523,0.002678,0.000431,0.007052
15171000,0.0324,0.013523,0.002678,0.000431,0.006229
15172000,0.0324,0.013523,0.002678,0.000431,0.006111
15173000,0.0324,0.013523,0.002678,0.000431,0.005994
15174000,0.0324,0.013523,0.002678,0.000431,0.006111
15175000,0.0324,0.013523,0.002678,0.000431,0.005759
15176000,0.0324,0.013523,0.002678,0.000431,0.005524
15177000,0.0324,0.013523,0.002678,0.000431,0.006464
15178000,0.0324,0.013523,0.002678,0.000431,0.006582
15179000,0.0324,0.013523,0.002678,0.000431,0.006347
15180000,0.0324,0.013523,0.002678,0.000431,0.005641
15181000,0.0324,0.013523,0.002678,0.000431,0.006817
15182000,0.0324,0.013523,0.002678,0.000431,0.006229
15183000,0.0324,0.013523,0.002678,0.000431,0.005759
15184000,0.0324,0.013523,0.002678,0.000431,0.006229
15185000,0.0324,0.013523,0.002678,0.000431,0.006347
15186000,0.0324,0.013523,0.002678,0.000431,0.005641
15187000,0.0324,0.013523,0.002678,0.000431,0.005876
15188000,0.0324,0.013523,0.002678,0.000431,0.006347
15189000,0.0324,0.013523,0.002678,0.000431,0.006347
15190000,0.0324,0.013523,0.002678,0.000431,0.006699
15191000,0.0324,0.013523,0.002678,0.000431,0.005994
15192000,0.0324,0.013523,0.002678,0.000431,0.006111
15193000,0.0324,0.013523,0.002678,0.000431,0.006111
15194000,0.0324,0.013523,0.002678,0.000431,0.005876
15195000,0.0324,0.013523,0.002678,0.000431,0.006699
15196000,0.0324,0.013523,0.002678,0.000431,0.005876
15197000,0.0324,0.013523,0.002678,0.000431,0.005524
15198000,0.0324,0.013523,0.002678,0.000431,0.006699
15199000,0.0324,0.013523,0.002678,0.000431,0.006229
15200000,0.0324,0.013523,0.002678,0.000431,0.006111
15201000,0.0324,0.013523,0.002678,0.000431,0.006229
15202000,0.0324,0.013523,0.002678,0.000431,0.006229
15203000,0.0324,0.013523,0.002678,0.000431,0.005054
15204000,0.0324,0.013523,0.002678,0.000431,0.006464
15205000,0.0324,0.013523,0.002678,0.000431,0.006817
15206000,0.0324,0.013523,0.002678,0.000431,0.006817
15207000,0.0324,0.013523,0.002678,0.000431,0.006582
15208000,0.0324,0.013523,0.002678,0.000431,0.006111
15209000,0.0324,0.013523,0.002678,0.000431,0.006464
15210000,0.0324,0.013523,0.002678,0.000431,0.005289
15211000,0.0324,0.013523,0.002678,0.000431,0.006229
15212000,0.0324,0.013523,0.002678,0.000431,0.006582
15213000,0.0324,0.013523,0.002678,0.000431,0.005994
15214000,0.0324,0.013523,0.002678,0.000431,0.005524
15215000,0.0324,0.013523,0.002678,0.000431,0.006347
15216000,0.0324,0.013523,0.002678,0.000431,0.005876
15217000,0.0324,0.013523,0.002678,0.000431,0.005759
15218000,0.0324,0.013523,0.002678,0.000431,0.006111
15219000,0.0324,0.013523,0.002678,0.000431,0.006111
15220000,0.0324,0.013523,0.002678,0.000431,0.006229
15221000,0.0324,0.013523,0.002678,0.000431,0.006347
15222000,0.0324,0.013523,0.002678,0.000431,0.006699
15223000,0.0324,0.013523,0.002678,0.000431,0.006464
15224000,0.0324,0.013523,0.002678,0.000431,0.005171
15225000,0.0324,0.013523,0.002678,0.000431,0.006582
15226000,0.0324,0.013523,0.002678,0.000431,0.006817
15227000,0.0324,0.013523,0.002678,0.000431,0.006111
15228000,0.0324,0.013523,0.002678,0.000431,0.006464
15229000,0.0324,0.013523,0.002678,0.000431,0.006347
15230000,0.0324,0.013523,0.002678,0.000431,0.005876
15231000,0.0324,0.013523,0.002678,0.000431,0.006229
15232000,0.0324,0.013523,0.002678,0.000431,0.005994
15233000,0.0324,0.013523,0.002678,0.000431,0.005759
15234000,0.0324,0.013523,0.002678,0.000431,0.006229
15235000,0.0324,0.013523,0.002678,0.000431,0.006347
15236000,0.0324,0.013523,0.002678,0.000431,0.006817
15237000,0.0324,0.013523,0.002678,0.000431,0.005994
15238000,0.0324,0.013523,0.002678,0.000431,0.005641
15239000,0.0324,0.013523,0.002678,0.000431,0.006582
15240000,0.0324,0.013523,0.002678,0.000431,0.006111
15241000,0.0324,0.013523,0.002678,0.000431,0.006111
15242000,0.0324,0.013523,0.002678,0.000431,0.006934
15243000,0.0324,0.013523,0.002678,0.000431,0.006699
15244000,0.0324,0.013523,0.002678,0.000431,0.006347
15245000,0.0324,0.013523,0.002678,0.000431,0.005524
15246000,0.0324,0.013523,0.002678,0.000431,0.006229
15247000,0.0324,0.013523,0.002678,0.000431,0.006347
15248000,0.0324,0.013523,0.002678,0.000431,0.006699
15249000,0.0324,0.013523,0.002678,0.000431,0.005759
15250000,0.0324,0.013523,0.002678,0.000431,0.006699
15251000,0.0324,0.013523,0.002678,0.000431,0.006817
15252000,0.0324,0.013523,0.002678,0.000431,0.005994
15253000,0.0324,0.013523,0.002678,0.000431,0.006347
15254000,0.0324,0.013523,0.002678,0.000431,0.005994
15255000,0.0324,0.013523,0.002678,0.000431,0.006111
15256000,0.0324,0.013523,0.002678,0.000431,0.006699
15257000,0.0324,0.013523,0.002678,0.000431,0.005524
15258000,0.0324,0.013523,0.002678,0.000431,0.006111
15259000,0.0324,0.013523,0.002678,0.000431,0.006934
15260000,0.0324,0.013523,0.002678,0.000431,0.006347
15261000,0.0324,0.013523,0.002678,0.000431,0.006347
15262000,0.0324,0.013523,0.002678,0.000431,0.005289
15263000,0.0324,0.013523,0.002678,0.000431,0.006582
15264000,0.0324,0.013523,0.002678,0.000431,0.006464
15265000,0.0324,0.013523,0.002678,0.000431,0.006229
15266000,0.0324,0.013523,0.002678,0.000431,0.006934
15267000,0.0324,0.013523,0.002678,0.000431,0.007052
15268000,0.0324,0.013523,0.002678,0.000431,0.006229
15269000,0.0324,0.013523,0.002678,0.000431,0.005289
15270000,0.0324,0.013523,0.002678,0.000431,0.006699
15271000,0.0324,0.013523,0.002678,0.000431,0.006582
15272000,0.0324,0.013523,0.002678,0.000431,0.006699
15273000,0.0324,0.013523,0.002678,0.000431,0.005876
15274000,0.0324,0.013523,0.002678,0.000431,0.006817
15275000,0.0324,0.013523,0.002678,0.000431,0.005524
15276000,0.0324,0.013523,0.002678,0.000431,0.006347
15277000,0.0324,0.013523,0.002678,0.000431,0.007052
15278000,0.0324,0.013523,0.002678,0.000431,0.006229
15279000,0.0324,0.013523,0.002678,0.000431,0.006582
15280000,0.0324,0.013523,0.002678,0.000431,0.005406
15281000,0.0324,0.013523,0.002678,0.000431,0.007169
15282000,0.0324,0.013523,0.002678,0.000431,0.006464
15283000,0.0324,0.013523,0.002678,0.000431,0.005524
15284000,0.0324,0.013523,0.002678,0.000431,0.006111
15285000,0.0324,0.013523,0.002678,0.000431,0.007404
15286000,0.0324,0.013523,0.002678,0.000431,0.006111
15287000,0.0324,0.013523,0.002678,0.000431,0.006111
15288000,0.0324,0.013523,0.002678,0.000431,0.006817
15289000,0.0324,0.013523,0.002678,0.000431,0.005994
15290000,0.0324,0.013523,0.002678,0.000431,0.006347
15291000,0.0324,0.013523,0.002678,0.000431,0.006229
15292000,0.0324,0.013523,0.002678,0.000431,0.006347
15293000,0.0324,0.013523,0.002678,0.000431,0.006347
15294000,0.0324,0.013523,0.002678,0.000431,0.006111
15295000,0.0324,0.013523,0.002678,0.000431,0.006111
15296000,0.0324,0.013523,0.002678,0.000431,0.005876
15297000,0.0324,0.013523,0.002678,0.000431,0.006111
15298000,0.0324,0.013523,0.002678,0.000431,0.006464
15299000,0.0324,0.013523,0.002678,0.000431,0.005759
15300000,0.0324,0.013523,0.002678,0.000431,0.006347
15301000,0.0324,0.013523,0.002678,0.000431,0.006582
15302000,0.0324,0.013523,0.002678,0.000431,0.006582
15303000,0.0324,0.013523,0.002678,0.000431,0.006464
15304000,0.0324,0.013523,0.002678,0.000431,0.006464
15305000,0.0324,0.013523,0.002678,0.000431,0.006582
15306000,0.0324,0.013523,0.002678,0.000431,0.005994
15307000,0.0324,0.013523,0.002678,0.000431,0.006582
15308000,0.0324,0.013523,0.002678,0.000431,0.006347
15309000,0.0324,0.013523,0.002678,0.000431,0.006229
15310000,0.0324,0.013523,0.002678,0.000431,0.006229
15311000,0.0324,0.013523,0.002678,0.000431,0.006582
15312000,0.0324,0.013523,0.002678,0.000431,0.006347
15313000,0.0324,0.013523,0.002678,0.000431,0.005759
15314000,0.0324,0.013523,0.002678,0.000431,0.006111
15315000,0.0324,0.013523,0.002678,0.000431,0.006229
15316000,0.0324,0.013523,0.002678,0.000431,0.006229
15317000,0.0324,0.013523,0.002678,0.000431,0.006582
15318000,0.0324,0.013523,0.002678,0.000431,0.005759
15319000,0.0324,0.013523,0.002678,0.000431,0.007052
15320000,0.0324,0.013523,0.002678,0.000431,0.006229
15321000,0.0324,0.013523,0.002678,0.000431,0.006817
15322000,0.0324,0.013523,0.002678,0.000431,0.006229
15323000,0.0324,0.013523,0.002678,0.000431,0.005994
15324000,0.0324,0.013523,0.002678,0.000431,0.006347
15325000,0.0324,0.013523,0.002678,0.000431,0.006817
15326000,0.0324,0.013523,0.002678,0.000431,0.006582
15327000,0.0324,0.013523,0.002678,0.000431,0.006111
15328000,0.0324,0.013523,0.002678,0.000431,0.006464
15329000,0.0324,0.013523,0.002678,0.000431,0.007052
15330000,0.0324,0.013523,0.002678,0.000431,0.006347
15331000,0.0324,0.013523,0.002678,0.000431,0.006817
15332000,0.0324,0.013523,0.002678,0.000431,0.006699
15333000,0.0324,0.013523,0.002678,0.000431,0.006817
15334000,0.0324,0.013523,0.002678,0.000431,0.005641
15335000,0.0324,0.013523,0.002678,0.000431,0.006347
15336000,0.0324,0.013523,0.002678,0.000431,0.006111
15337000,0.0324,0.013523,0.002678,0.000431,0.006582
15338000,0.0324,0.013523,0.002678,0.000431,0.006464
15339000,0.0324,0.013523,0.002678,0.000431,0.007052
15340000,0.0324,0.013523,0.002678,0.000431,0.005994
15341000,0.0324,0.013523,0.002678,0.000431,0.006229
15342000,0.0324,0.013523,0.002678,0.000431,0.006464
15343000,0.0324,0.013523,0.002678,0.000431,0.006111
15344000,0.0324,0.013523,0.002678,0.000431,0.007052
15345000,0.0324,0.013523,0.002678,0.000431,0.006699
15346000,0.0324,0.013523,0.002678,0.000431,0.006582
15347000,0.0324,0.013523,0.002678,0.000431,0.006347
15348000,0.0324,0.013523,0.002678,0.000431,0.006582
15349000,0.0324,0.013523,0.002678,0.000431,0.006229
15350000,0.0324,0.013523,0.002678,0.000431,0.006464
15351000,0.0324,0.013523,0.002678,0.000431,0.006229
15352000,0.0324,0.013523,0.002678,0.000431,0.006934
15353000,0.0324,0.013523,0.002678,0.000431,0.005994
15354000,0.0324,0.013523,0.002678,0.000431,0.006582
15355000,0.0324,0.013523,0.002678,0.000431,0.006229
15356000,0.0324,0.013523,0.002678,0.000431,0.006817
15357000,0.0324,0.013523,0.002678,0.000431,0.006347
15358000,0.0324,0.013523,0.002678,0.000431,0.005876
15359000,0.0324,0.013523,0.002678,0.000431,0.006111
15360000,0.0324,0.013523,0.002678,0.000431,0.005876
15361000,0.0324,0.013523,0.002678,0.000431,0.006934
15362000,0.0324,0.013523,0.002678,0.000431,0.006582
15363000,0.0324,0.013523,0.002678,0.000431,0.006934
15364000,0.0324,0.013523,0.002678,0.000431,0.005524
15365000,0.0324,0.013523,0.002678,0.000431,0.006817
15366000,0.0324,0.013523,0.002678,0.000431,0.006111
15367000,0.0324,0.013523,0.002678,0.000431,0.007169
15368000,0.0324,0.013523,0.002678,0.000431,0.005994
15369000,0.0324,0.013523,0.002678,0.000431,0.005289
15370000,0.0324,0.013523,0.002678,0.000431,0.007287
15371000,0.0324,0.013523,0.002678,0.000431,0.007169
15372000,0.0324,0.013523,0.002678,0.000431,0.006229
15373000,0.0324,0.013523,0.002678,0.000431,0.006229
15374000,0.0324,0.013523,0.002678,0.000431,0.006582
15375000,0.0324,0.013523,0.002678,0.000431,0.005876
15376000,0.0324,0.013523,0.002678,0.000431,0.005759
15377000,0.0324,0.013523,0.002678,0.000431,0.006464
15378000,0.0324,0.013523,0.002678,0.000431,0.005876
15379000,0.0324,0.013523,0.002678,0.000431,0.006699
15380000,0.0324,0.013523,0.002678,0.000431,0.007052
15381000,0.0324,0.013523,0.002678,0.000431,0.006229
15382000,0.0324,0.013523,0.002678,0.000431,0.006229
15383000,0.0324,0.013523,0.002678,0.000431,0.006699
15384000,0.0324,0.013523,0.002678,0.000431,0.006464
15385000,0.0324,0.013523,0.002678,0.000431,0.007169
15386000,0.0324,0.013523,0.002678,0.000431,0.005289
15387000,0.0324,0.013523,0.002678,0.000431,0.005524
15388000,0.0324,0.013523,0.002678,0.000431,0.006934
15389000,0.0324,0.013523,0.002678,0.000431,0.006699
15390000,0.0324,0.013523,0.002678,0.000431,0.006464
15391000,0.0324,0.013523,0.002678,0.000431,0.006464
15392000,0.0324,0.013523,0.002678,0.000431,0.005289
15393000,0.0324,0.013523,0.002678,0.000431,0.007287
15394000,0.0324,0.013523,0.002678,0.000431,0.006347
15395000,0.0324,0.013523,0.002678,0.000431,0.006464
15396000,0.0324,0.013523,0.002678,0.000431,0.006347
15397000,0.0324,0.013523,0.002678,0.000431,0.006582
15398000,0.0324,0.013523,0.002678,0.000431,0.006934
15399000,0.0324,0.013523,0.002678,0.000431,0.006229
15400000,0.0324,0.013523,0.002678,0.000431,0.006464
15401000,0.0324,0.013523,0.002678,0.000431,0.006229
15402000,0.0324,0.013523,0.002678,0.000431,0.006111
15403000,0.0324,0.013523,0.002678,0.000431,0.006111
15404000,0.0324,0.013523,0.002678,0.000431,0.005876
15405000,0.0324,0.013523,0.002678,0.000431,0.005641
15406000,0.0324,0.013523,0.002678,0.000431,0.006464
15407000,0.0324,0.013523,0.002678,0.000431,0.006582
15408000,0.0324,0.013523,0.002678,0.000431,0.006347
15409000,0.0324,0.013523,0.002678,0.000431,0.006464
15410000,0.0324,0.013523,0.002678,0.000431,0.005641
15411000,0.0324,0.013523,0.002678,0.000431,0.006817
15412000,0.0324,0.013523,0.002678,0.000431,0.006229
15413000,0.0324,0.013523,0.002678,0.000431,0.006111
15414000,0.0324,0.013523,0.002678,0.000431,0.006347
15415000,0.0324,0.013523,0.002678,0.000431,0.006464
15416000,0.0324,0.013523,0.002678,0.000431,0.006699
15417000,0.0324,0.013523,0.002678,0.000431,0.005876
15418000,0.0324,0.013523,0.002678,0.000431,0.006464
15419000,0.0324,0.013523,0.002678,0.000431,0.006347
15420000,0.0324,0.013523,0.002678,0.000431,0.005524
15421000,0.0324,0.013523,0.002678,0.000431,0.006582
15422000,0.0324,0.013523,0.002678,0.000431,0.007052
15423000,0.0324,0.013523,0.002678,0.000431,0.005994
15424000,0.0324,0.013523,0.002678,0.000431,0.005641
15425000,0.0324,0.013523,0.002678,0.000431,0.006582
15426000,0.0324,0.013523,0.002678,0.000431,0.006229
15427000,0.0324,0.013523,0.002678,0.000431,0.006464
15428000,0.0324,0.013523,0.002678,0.000431,0.006464
15429000,0.0324,0.013523,0.002678,0.000431,0.006347
15430000,0.0324,0.013523,0.002678,0.000431,0.006229
15431000,0.0324,0.013523,0.002678,0.000431,0.006229
15432000,0.0324,0.013523,0.002678,0.000431,0.006934
15433000,0.0324,0.013523,0.002678,0.000431,0.006347
15434000,0.0324,0.013523,0.002678,0.000431,0.006111
15435000,0.0324,0.013523,0.002678,0.000431,0.006229
15436000,0.0324,0.013523,0.002678,0.000431,0.005524
15437000,0.0324,0.013523,0.002678,0.000431,0.005524
15438000,0.0324,0.013523,0.002678,0.000431,0.006817
15439000,0.0324,0.013523,0.002678,0.000431,0.006229
15440000,0.0324,0.013523,0.002678,0.000431,0.005876
15441000,0.0324,0.013523,0.002678,0.000431,0.007287
15442000,0.0324,0.013523,0.002678,0.000431,0.006699
15443000,0.0324,0.013523,0.002678,0.000431,0.006111
15444000,0.0324,0.013523,0.002678,0.000431,0.006111
15445000,0.0324,0.013523,0.002678,0.000431,0.006464
15446000,0.0324,0.013523,0.002678,0.000431,0.005759
15447000,0.0324,0.013523,0.002678,0.000431,0.005994
15448000,0.0324,0.013523,0.002678,0.000431,0.006934
15449000,0.0324,0.013523,0.002678,0.000431,0.006347
15450000,0.0324,0.013523,0.002678,0.000431,0.006347
15451000,0.0324,0.013523,0.002678,0.000431,0.006347
15452000,0.0324,0.013523,0.002678,0.000431,0.007522
15453000,0.0324,0.013523,0.002678,0.000431,0.005641
15454000,0.0324,0.013523,0.002678,0.000431,0.005406
15455000,0.0324,0.013523,0.002678,0.000431,0.006229
15456000,0.0324,0.013523,0.002678,0.000431,0.005641
15457000,0.0324,0.013523,0.002678,0.000431,0.006699
15458000,0.0324,0.013523,0.002678,0.000431,0.005759
15459000,0.0324,0.013523,0.002678,0.000431,0.006699
15460000,0.0324,0.013523,0.002678,0.000431,0.005994
15461000,0.0324,0.013523,0.002678,0.000431,0.006582
15462000,0.0324,0.013523,0.002678,0.000431,0.005876
15463000,0.0324,0.013523,0.002678,0.000431,0.006464
15464000,0.0324,0.013523,0.002678,0.000431,0.006229
15465000,0.0324,0.013523,0.002678,0.000431,0.005759
15466000,0.0324,0.013523,0.002678,0.000431,0.005759
15467000,0.0324,0.013523,0.002678,0.000431,0.006229
15468000,0.0324,0.013523,0.002678,0.000431,0.006699
15469000,0.0324,0.013523,0.002678,0.000431,0.006347
15470000,0.0324,0.013523,0.002678,0.000431,0.005994
15471000,0.0324,0.013523,0.002678,0.000431,0.006347
15472000,0.0324,0.013523,0.002678,0.000431,0.005641
15473000,0.0324,0.013523,0.002678,0.000431,0.005759
15474000,0.0324,0.013523,0.002678,0.000431,0.006582
15475000,0.0324,0.013523,0.002678,0.000431,0.006582
15476000,0.0324,0.013523,0.002678,0.000431,0.006347
15477000,0.0324,0.013523,0.002678,0.000431,0.005994
15478000,0.0324,0.013523,0.002678,0.000431,0.006111
15479000,0.0324,0.013523,0.002678,0.000431,0.006582
15480000,0.0324,0.013523,0.002678,0.000431,0.006111
15481000,0.0324,0.013523,0.002678,0.000431,0.005406
15482000,0.0324,0.013523,0.002678,0.000431,0.006817
15483000,0.0324,0.013523,0.002678,0.000431,0.006464
15484000,0.0324,0.013523,0.002678,0.000431,0.006817
15485000,0.0324,0.013523,0.002678,0.000431,0.006464
15486000,0.0324,0.013523,0.002678,0.000431,0.006699
15487000,0.0324,0.013523,0.002678,0.000431,0.006699
15488000,0.0324,0.013523,0.002678,0.000431,0.005641
15489000,0.0324,0.013523,0.002678,0.000431,0.006699
15490000,0.0324,0.013523,0.002678,0.000431,0.006229
15491000,0.0324,0.013523,0.002678,0.000431,0.006347
15492000,0.0324,0.013523,0.002678,0.000431,0.006111
15493000,0.0324,0.013523,0.002678,0.000431,0.006347
15494000,0.0324,0.013523,0.002678,0.000431,0.006347
15495000,0.0324,0.013523,0.002678,0.000431,0.006347
15496000,0.0324,0.013523,0.002678,0.000431,0.006582
15497000,0.0324,0.013523,0.002678,0.000431,0.006464
15498000,0.0324,0.013523,0.002678,0.000431,0.006464
15499000,0.0324,0.013523,0.002678,0.000431,0.005876
15500000,0.0324,0.013523,0.002678,0.000431,0.007169
15501000,0.0324,0.013523,0.002678,0.000431,0.006817
15502000,0.0324,0.013523,0.002678,0.000431,0.006111
15503000,0.0324,0.013523,0.002678,0.000431,0.006347
15504000,0.0324,0.013523,0.002678,0.000431,0.006464
15505000,0.0324,0.013523,0.002678,0.000431,0.006699
15506000,0.0324,0.013523,0.002678,0.000431,0.006111
15507000,0.0324,0.013523,0.002678,0.000431,0.006582
15508000,0.0324,0.013523,0.002678,0.000431,0.006582
15509000,0.0324,0.013523,0.002678,0.000431,0.005524
15510000,0.0324,0.013523,0.002678,0.000431,0.006347
15511000,0.0324,0.013523,0.002678,0.000431,0.006934
15512000,0.0324,0.013523,0.002678,0.000431,0.006111
15513000,0.0324,0.013523,0.002678,0.000431,0.006817
15514000,0.0324,0.013523,0.002678,0.000431,0.006582
15515000,0.0324,0.013523,0.002678,0.000431,0.006934
15516000,0.0324,0.013523,0.002678,0.000431,0.006229
15517000,0.0324,0.013523,0.002678,0.000431,0.006582
15518000,0.0324,0.013523,0.002678,0.000431,0.006111
15519000,0.0324,0.013523,0.002678,0.000431,0.006817
15520000,0.0324,0.013523,0.002678,0.000431,0.006347
15521000,0.0324,0.013523,0.002678,0.000431,0.006111
15522000,0.0324,0.013523,0.002678,0.000431,0.007052
15523000,0.0324,0.013523,0.002678,0.000431,0.006464
15524000,0.0324,0.013523,0.002678,0.000431,0.005994
15525000,0.0324,0.013523,0.002678,0.000431,0.006111
15526000,0.0324,0.013523,0.002678,0.000431,0.006347
15527000,0.0324,0.013523,0.002678,0.000431,0.006582
15528000,0.0324,0.013523,0.002678,0.000431,0.005994
15529000,0.0324,0.013523,0.002678,0.000431,0.005641
15530000,0.0324,0.013523,0.002678,0.000431,0.006464
15531000,0.0324,0.013523,0.002678,0.000431,0.006111
15532000,0.0324,0.013523,0.002678,0.000431,0.006582
15533000,0.0324,0.013523,0.002678,0.000431,0.005759
15534000,0.0324,0.013523,0.002678,0.000431,0.005641
15535000,0.0324,0.013523,0.002678,0.000431,0.006347
15536000,0.0324,0.013523,0.002678,0.000431,0.005994
15537000,0.0324,0.013523,0.002678,0.000431,0.005994
15538000,0.0324,0.013523,0.002678,0.000431,0.006347
15539000,0.0324,0.013523,0.002678,0.000431,0.006347
15540000,0.0324,0.013523,0.002678,0.000431,0.006464
15541000,0.0324,0.013523,0.002678,0.000431,0.007169
15542000,0.0324,0.013523,0.002678,0.000431,0.005876
15543000,0.0324,0.013523,0.002678,0.000431,0.005759
15544000,0.0324,0.013523,0.002678,0.000431,0.005524
15545000,0.0324,0.013523,0.002678,0.000431,0.006347
15546000,0.0324,0.013523,0.002678,0.000431,0.006229
15547000,0.0324,0.013523,0.002678,0.000431,0.006464
15548000,0.0324,0.013523,0.002678,0.000431,0.006229
15549000,0.0324,0.013523,0.002678,0.000431,0.005641
15550000,0.0324,0.013523,0.002678,0.000431,0.006111
15551000,0.0324,0.013523,0.002678,0.000431,0.006464
15552000,0.0324,0.013523,0.002678,0.000431,0.006699
15553000,0.0324,0.013523,0.002678,0.000431,0.006111
15554000,0.0324,0.013523,0.002678,0.000431,0.005759
15555000,0.0324,0.013523,0.002678,0.000431,0.006817
15556000,0.0324,0.013523,0.002678,0.000431,0.006464
15557000,0.0324,0.013523,0.002678,0.000431,0.005759
15558000,0.0324,0.013523,0.002678,0.000431,0.006347
15559000,0.0324,0.013523,0.002678,0.000431,0.006582
15560000,0.0324,0.013523,0.002678,0.000431,0.006582
15561000,0.0324,0.013523,0.002678,0.000431,0.006582
15562000,0.0324,0.013523,0.002678,0.000431,0.006229
15563000,0.0324,0.013523,0.002678,0.000431,0.006464
15564000,0.0324,0.013523,0.002678,0.000431,0.005876
15565000,0.0324,0.013523,0.002678,0.000431,0.007169
15566000,0.0324,0.013523,0.002678,0.000431,0.006229
15567000,0.0324,0.013523,0.002678,0.000431,0.006347
15568000,0.0324,0.013523,0.002678,0.000431,0.005406
15569000,0.0324,0.013523,0.002678,0.000431,0.006934
15570000,0.0324,0.013523,0.002678,0.000431,0.005994
15571000,0.0324,0.013523,0.002678,0.000431,0.006934
15572000,0.0324,0.013523,0.002678,0.000431,0.006817
15573000,0.0324,0.013523,0.002678,0.000431,0.005759
15574000,0.0324,0.013523,0.002678,0.000431,0.007052
15575000,0.0324,0.013523,0.002678,0.000431,0.006699
15576000,0.0324,0.013523,0.002678,0.000431,0.005994
15577000,0.0324,0.013523,0.002678,0.000431,0.006229
15578000,0.0324,0.013523,0.002678,0.000431,0.006347
15579000,0.0324,0.013523,0.002678,0.000431,0.006347
15580000,0.0324,0.013523,0.002678,0.000431,0.006111
15581000,0.0324,0.013523,0.002678,0.000431,0.006582
15582000,0.0324,0.013523,0.002678,0.000431,0.005876
15583000,0.0324,0.013523,0.002678,0.000431,0.005641
15584000,0.0324,0.013523,0.002678,0.000431,0.006464
15585000,0.0324,0.013523,0.002678,0.000431,0.006817
15586000,0.0324,0.013523,0.002678,0.000431,0.006464
15587000,0.0324,0.013523,0.002678,0.000431,0.005994
15588000,0.0324,0.013523,0.002678,0.000431,0.006347
15589000,0.0324,0.013523,0.002678,0.000431,0.006464
15590000,0.0324,0.013523,0.002678,0.000431,0.006229
15591000,0.0324,0.013523,0.002678,0.000431,0.006347
15592000,0.0324,0.013523,0.002678,0.000431,0.006229
15593000,0.0324,0.013523,0.002678,0.000431,0.005759
15594000,0.0324,0.013523,0.002678,0.000431,0.006699
15595000,0.0324,0.013523,0.002678,0.000431,0.006582
15596000,0.0324,0.013523,0.002678,0.000431,0.006347
15597000,0.0324,0.013523,0.002678,0.000431,0.006464
15598000,0.0324,0.013523,0.002678,0.000431,0.006464
15599000,0.0324,0.013523,0.002678,0.000431,0.005876
15600000,0.0324,0.013523,0.002678,0.000431,0.007169
15601000,0.0324,0.013523,0.002678,0.000431,0.006582
15602000,0.0324,0.013523,0.002678,0.000431,0.005876
15603000,0.0324,0.013523,0.002678,0.000431,0.006229
15604000,0.0324,0.013523,0.002678,0.000431,0.007052
15605000,0.0324,0.013523,0.002678,0.000431,0.005524
15606000,0.0324,0.013523,0.002678,0.000431,0.006699
15607000,0.0324,0.013523,0.002678,0.000431,0.006817
15608000,0.0324,0.013523,0.002678,0.000431,0.006347
15609000,0.0324,0.013523,0.002678,0.000431,0.006699
15610000,0.0324,0.013523,0.002678,0.000431,0.006111
15611000,0.0324,0.013523,0.002678,0.000431,0.005994
15612000,0.0324,0.013523,0.002678,0.000431,0.006464
15613000,0.0324,0.013523,0.002678,0.000431,0.007169
15614000,0.0324,0.013523,0.002678,0.000431,0.005759
15615000,0.0324,0.013523,0.002678,0.000431,0.006111
15616000,0.0324,0.013523,0.002678,0.000431,0.006111
15617000,0.0324,0.013523,0.002678,0.000431,0.006817
15618000,0.0324,0.013523,0.002678,0.000431,0.006111
15619000,0.0324,0.013523,0.002678,0.000431,0.006817
15620000,0.0324,0.013523,0.002678,0.000431,0.006699
15621000,0.0324,0.013523,0.002678,0.000431,0.006464
15622000,0.0324,0.013523,0.002678,0.000431,0.005289
15623000,0.0324,0.013523,0.002678,0.000431,0.006699
15624000,0.0324,0.013523,0.002678,0.000431,0.007287
15625000,0.0324,0.013523,0.002678,0.000431,0.005876
15626000,0.0324,0.013523,0.002678,0.000431,0.006699
15627000,0.0324,0.013523,0.002678,0.000431,0.007052
15628000,0.0324,0.013523,0.002678,0.000431,0.005171
15629000,0.0324,0.013523,0.002678,0.000431,0.005994
15630000,0.0324,0.013523,0.002678,0.000431,0.005641
15631000,0.0324,0.013523,0.002678,0.000431,0.004701
15632000,0.0324,0.013523,0.002678,0.000431,0.005171
15633000,0.0324,0.013523,0.002678,0.000431,0.004701
15634000,0.0324,0.013523,0.002678,0.000431,0.004819
15635000,0.0324,0.013523,0.002678,0.000431,0.004349
15636000,0.0324,0.013523,0.002678,0.000431,0.004936
15637000,0.0324,0.013523,0.002678,0.000431,0.004584
15638000,0.0324,0.013523,0.002678,0.000431,0.004349
15639000,0.0324,0.013523,0.002678,0.000431,0.004466
15640000,0.0324,0.013523,0.002678,0.000431,0.005289
15641000,0.0324,0.013523,0.002678,0.000431,0.004701
15642000,0.0324,0.013523,0.002678,0.000431,0.005289
15643000,0.0324,0.013523,0.002678,0.000431,0.004936
15644000,0.0324,0.013523,0.002678,0.000431,0.005054
15645000,0.0324,0.013523,0.002678,0.000431,0.004819
15646000,0.0324,0.013523,0.002678,0.000431,0.004701
15647000,0.0324,0.013523,0.002678,0.000431,0.005289
15648000,0.0324,0.013523,0.002678,0.000431,0.005054
15649000,0.0324,0.013523,0.002678,0.000431,0.005054
15650000,0.0324,0.013523,0.002678,0.000431,0.004936
15651000,0.0324,0.013523,0.002678,0.000431,0.004584
15652000,0.0324,0.013523,0.002678,0.000431,0.004113
15653000,0.0324,0.013523,0.002678,0.000431,0.004701
15654000,0.0324,0.013523,0.002678,0.000431,0.004349
15655000,0.0324,0.013523,0.002678,0.000431,0.005054
15656000,0.0324,0.013523,0.002678,0.000431,0.004701
15657000,0.0324,0.013523,0.002678,0.000431,0.005054
15658000,0.0324,0.013523,0.002678,0.000431,0.004231
15659000,0.0324,0.013523,0.002678,0.000431,0.005171
15660000,0.0324,0.013523,0.002678,0.000431,0.003761
15661000,0.0324,0.013523,0.002678,0.000431,0.005289
15662000,0.0324,0.013523,0.002678,0.000431,0.004819
15663000,0.0324,0.013523,0.002678,0.000431,0.004231
15664000,0.0324,0.013523,0.002678,0.000431,0.005054
15665000,0.0324,0.013523,0.002678,0.000431,0.004936
15666000,0.0324,0.013523,0.002678,0.000431,0.004819
15667000,0.0324,0.013523,0.002678,0.000431,0.004936
15668000,0.0324,0.013523,0.002678,0.000431,0.005054
15669000,0.0324,0.013523,0.002678,0.000431,0.004584
15670000,0.0324,0.013523,0.002678,0.000431,0.004584
15671000,0.0324,0.013523,0.002678,0.000431,0.005054
15672000,0.0324,0.013523,0.002678,0.000431,0.005171
15673000,0.0324,0.013523,0.002678,0.000431,0.004113
15674000,0.0324,0.013523,0.002678,0.000431,0.005171
15675000,0.0324,0.013523,0.002678,0.000431,0.004819
15676000,0.0324,0.013523,0.002678,0.000431,0.004466
15677000,0.0324,0.013523,0.002678,0.000431,0.004113
15678000,0.0324,0.013523,0.002678,0.000431,0.004936
15679000,0.0324,0.013523,0.002678,0.000431,0.004936
15680000,0.0324,0.013523,0.002678,0.000431,0.004819
15681000,0.0324,0.013523,0.002678,0.000431,0.005171
15682000,0.0324,0.013523,0.002678,0.000431,0.004819
15683000,0.0324,0.013523,0.002678,0.000431,0.005054
15684000,0.0324,0.013523,0.002678,0.000431,0.005289
15685000,0.0324,0.013523,0.002678,0.000431,0.005524
15686000,0.0324,0.013523,0.002678,0.000431,0.004113
15687000,0.0324,0.013523,0.002678,0.000431,0.005054
15688000,0.0324,0.013523,0.002678,0.000431,0.004936
15689000,0.0324,0.013523,0.002678,0.000431,0.004466
15690000,0.0324,0.013523,0.002678,0.000431,0.004349
15691000,0.0324,0.013523,0.002678,0.000431,0.004936
15692000,0.0324,0.013523,0.002678,0.000431,0.005054
15693000,0.0324,0.013523,0.002678,0.000431,0.004936
15694000,0.0324,0.013523,0.002678,0.000431,0.005171
15695000,0.0324,0.013523,0.002678,0.000431,0.004819
15696000,0.0324,0.013523,0.002678,0.000431,0.004701
15697000,0.0324,0.013523,0.002678,0.000431,0.004936
15698000,0.0324,0.013523,0.002678,0.000431,0.004819
15699000,0.0324,0.013523,0.002678,0.000431,0.004936
15700000,0.0324,0.013523,0.002678,0.000431,0.004936
15701000,0.0324,0.013523,0.002678,0.000431,0.004701
15702000,0.0324,0.013523,0.002678,0.000431,0.005406
15703000,0.0324,0.013523,0.002678,0.000431,0.004936
15704000,0.0324,0.013523,0.002678,0.000431,0.005054
15705000,0.0324,0.013523,0.002678,0.000431,0.005289
15706000,0.0324,0.013523,0.002678,0.000431,0.004701
15707000,0.0324,0.013523,0.002678,0.000431,0.004466
15708000,0.0324,0.013523,0.002678,0.000431,0.004701
15709000,0.0324,0.013523,0.002678,0.000431,0.004819
15710000,0.0324,0.013523,0.002678,0.000431,0.005054
15711000,0.0324,0.013523,0.002678,0.000431,0.005171
15712000,0.0324,0.013523,0.002678,0.000431,0.004349
15713000,0.0324,0.013523,0.002678,0.000431,0.004701
15714000,0.0324,0.013523,0.002678,0.000431,0.004231
15715000,0.0324,0.013523,0.002678,0.000431,0.004701
15716000,0.0324,0.013523,0.002678,0.000431,0.004936
15717000,0.0324,0.013523,0.002678,0.000431,0.004349
15718000,0.0324,0.013523,0.002678,0.000431,0.004466
15719000,0.0324,0.013523,0.002678,0.000431,0.004936
15720000,0.0324,0.013523,0.002678,0.000431,0.004819
15721000,0.0324,0.013523,0.002678,0.000431,0.005171
15722000,0.0324,0.013523,0.002678,0.000431,0.005524
15723000,0.0324,0.013523,0.002678,0.000431,0.005054
15724000,0.0324,0.013523,0.002678,0.000431,0.004466
15725000,0.0324,0.013523,0.002678,0.000431,0.004466
15726000,0.0324,0.013523,0.002678,0.000431,0.005406
15727000,0.0324,0.013523,0.002678,0.000431,0.004936
15728000,0.0324,0.013523,0.002678,0.000431,0.004936
15729000,0.0324,0.013523,0.002678,0.000431,0.004819
15730000,0.0324,0.013523,0.002678,0.000431,0.005406
15731000,0.0324,0.013523,0.002678,0.000431,0.004936
15732000,0.0324,0.013523,0.002678,0.000431,0.004936
15733000,0.0324,0.013523,0.002678,0.000431,0.005171
15734000,0.0324,0.013523,0.002678,0.000431,0.005171
15735000,0.0324,0.013523,0.002678,0.000431,0.004819
15736000,0.0324,0.013523,0.002678,0.000431,0.005054
15737000,0.0324,0.013523,0.002678,0.000431,0.005406
15738000,0.0324,0.013523,0.002678,0.000431,0.004466
15739000,0.0324,0.013523,0.002678,0.000431,0.004701
15740000,0.0324,0.013523,0.002678,0.000431,0.005054
15741000,0.0324,0.013523,0.002678,0.000431,0.004936
15742000,0.0324,0.013523,0.002678,0.000431,0.005289
15743000,0.0324,0.013523,0.002678,0.000431,0.004701
15744000,0.0324,0.013523,0.002678,0.000431,0.004819
15745000,0.0324,0.013523,0.002678,0.000431,0.004936
15746000,0.0324,0.013523,0.002678,0.000431,0.004231
15747000,0.0324,0.013523,0.002678,0.000431,0.004819
15748000,0.0324,0.013523,0.002678,0.000431,0.004819
15749000,0.0324,0.013523,0.002678,0.000431,0.004936
15750000,0.0324,0.013523,0.002678,0.000431,0.004701
15751000,0.0324,0.013523,0.002678,0.000431,0.004584
15752000,0.0324,0.013523,0.002678,0.000431,0.005524
15753000,0.0324,0.013523,0.002678,0.000431,0.005406
15754000,0.0324,0.013523,0.002678,0.000431,0.004819
15755000,0.0324,0.013523,0.002678,0.000431,0.004466
15756000,0.0324,0.013523,0.002678,0.000431,0.004349
15757000,0.0324,0.013523,0.002678,0.000431,0.005524
15758000,0.0324,0.013523,0.002678,0.000431,0.004584
15759000,0.0324,0.013523,0.002678,0.000431,0.004936
15760000,0.0324,0.013523,0.002678,0.000431,0.005524
15761000,0.0324,0.013523,0.002678,0.000431,0.004936
15762000,0.0324,0.013523,0.002678,0.000431,0.004819
15763000,0.0324,0.013523,0.002678,0.000431,0.005054
15764000,0.0324,0.013523,0.002678,0.000431,0.004701
15765000,0.0324,0.013523,0.002678,0.000431,0.004936
15766000,0.0324,0.013523,0.002678,0.000431,0.004584
15767000,0.0324,0.013523,0.002678,0.000431,0.005406
15768000,0.0324,0.013523,0.002678,0.000431,0.005054
15769000,0.0324,0.013523,0.002678,0.000431,0.004466
15770000,0.0324,0.013523,0.002678,0.000431,0.005289
15771000,0.0324,0.013523,0.002678,0.000431,0.004819
15772000,0.0324,0.013523,0.002678,0.000431,0.004231
15773000,0.0324,0.013523,0.002678,0.000431,0.004349
15774000,0.0324,0.013523,0.002678,0.000431,0.004936
15775000,0.0324,0.013523,0.002678,0.000431,0.004466
15776000,0.0324,0.013523,0.002678,0.000431,0.004701
15777000,0.0324,0.013523,0.002678,0.000431,0.004584
15778000,0.0324,0.013523,0.002678,0.000431,0.004701
15779000,0.0324,0.013523,0.002678,0.000431,0.003996
15780000,0.0324,0.013523,0.002678,0.000431,0.004936
15781000,0.0324,0.013523,0.002678,0.000431,0.005641
15782000,0.0324,0.013523,0.002678,0.000431,0.004701
15783000,0.0324,0.013523,0.002678,0.000431,0.004701
15784000,0.0324,0.013523,0.002678,0.000431,0.004819
15785000,0.0324,0.013523,0.002678,0.000431,0.005289
15786000,0.0324,0.013523,0.002678,0.000431,0.003878
15787000,0.0324,0.013523,0.002678,0.000431,0.005641
15788000,0.0324,0.013523,0.002678,0.000431,0.004584
15789000,0.0324,0.013523,0.002678,0.000431,0.005406
15790000,0.0324,0.013523,0.002678,0.000431,0.004936
15791000,0.0324,0.013523,0.002678,0.000431,0.005171
15792000,0.0324,0.013523,0.002678,0.000431,0.004113
15793000,0.0324,0.013523,0.002678,0.000431,0.004349
15794000,0.0324,0.013523,0.002678,0.000431,0.004819
15795000,0.0324,0.013523,0.002678,0.000431,0.005289
15796000,0.0324,0.013523,0.002678,0.000431,0.005054
15797000,0.0324,0.013523,0.002678,0.000431,0.005171
15798000,0.0324,0.013523,0.002678,0.000431,0.004113
15799000,0.0324,0.013523,0.002678,0.000431,0.004819
15800000,0.0324,0.013523,0.002678,0.000431,0.004701
15801000,0.0324,0.013523,0.002678,0.000431,0.005289
15802000,0.0324,0.013523,0.002678,0.000431,0.005289
15803000,0.0324,0.013523,0.002678,0.000431,0.004231
15804000,0.0324,0.013523,0.002678,0.000431,0.005289
15805000,0.0324,0.013523,0.002678,0.000431,0.005054
15806000,0.0324,0.013523,0.002678,0.000431,0.004349
15807000,0.0324,0.013523,0.002678,0.000431,0.004701
15808000,0.0324,0.013523,0.002678,0.000431,0.004231
15809000,0.0324,0.013523,0.002678,0.000431,0.004701
15810000,0.0324,0.013523,0.002678,0.000431,0.004349
15811000,0.0324,0.013523,0.002678,0.000431,0.004936
15812000,0.0324,0.013523,0.002678,0.000431,0.004819
15813000,0.0324,0.013523,0.002678,0.000431,0.004701
15814000,0.0324,0.013523,0.002678,0.000431,0.004701
15815000,0.0324,0.013523,0.002678,0.000431,0.005406
15816000,0.0324,0.013523,0.002678,0.000431,0.004819
15817000,0.0324,0.013523,0.002678,0.000431,0.004701
15818000,0.0324,0.013523,0.002678,0.000431,0.004819
15819000,0.0324,0.013523,0.002678,0.000431,0.004584
15820000,0.0324,0.013523,0.002678,0.000431,0.004231
15821000,0.0324,0.013523,0.002678,0.000431,0.004349
15822000,0.0324,0.013523,0.002678,0.000431,0.005994
15823000,0.0324,0.013523,0.002678,0.000431,0.005524
15824000,0.0324,0.013523,0.002678,0.000431,0.004349
15825000,0.0324,0.013523,0.002678,0.000431,0.005171
15826000,0.0324,0.013523,0.002678,0.000431,0.004584
15827000,0.0324,0.013523,0.002678,0.000431,0.004701
15828000,0.0324,0.013523,0.002678,0.000431,0.004936
15829000,0.0324,0.013523,0.002678,0.000431,0.005289
15830000,0.0324,0.013523,0.002678,0.000431,0.004819
15831000,0.0324,0.013523,0.002678,0.000431,0.004819
15832000,0.0324,0.013523,0.002678,0.000431,0.004936
15833000,0.0324,0.013523,0.002678,0.000431,0.004701
15834000,0.0324,0.013523,0.002678,0.000431,0.005406
15835000,0.0324,0.013523,0.002678,0.000431,0.004701
15836000,0.0324,0.013523,0.002678,0.000431,0.005054
15837000,0.0324,0.013523,0.002678,0.000431,0.004113
15838000,0.0324,0.013523,0.002678,0.000431,0.004936
15839000,0.0324,0.013523,0.002678,0.000431,0.004819
15840000,0.0324,0.013523,0.002678,0.000431,0.004936
15841000,0.0324,0.013523,0.002678,0.000431,0.004466
15842000,0.0324,0.013523,0.002678,0.000431,0.004584
15843000,0.0324,0.013523,0.002678,0.000431,0.004819
15844000,0.0324,0.013523,0.002678,0.000431,0.004231
15845000,0.0324,0.013523,0.002678,0.000431,0.005054
15846000,0.0324,0.013523,0.002678,0.000431,0.004701
15847000,0.0324,0.013523,0.002678,0.000431,0.005406
15848000,0.0324,0.013523,0.002678,0.000431,0.004819
15849000,0.0324,0.013523,0.002678,0.000431,0.004584
15850000,0.0324,0.013523,0.002678,0.000431,0.004466
15851000,0.0324,0.013523,0.002678,0.000431,0.004701
15852000,0.0324,0.013523,0.002678,0.000431,0.005759
15853000,0.0324,0.013523,0.002678,0.000431,0.003996
15854000,0.0324,0.013523,0.002678,0.000431,0.005054
15855000,0.0324,0.013523,0.002678,0.000431,0.004349
15856000,0.0324,0.013523,0.002678,0.000431,0.004936
15857000,0.0324,0.013523,0.002678,0.000431,0.005054
15858000,0.0324,0.013523,0.002678,0.000431,0.004584
15859000,0.0324,0.013523,0.002678,0.000431,0.004819
15860000,0.0324,0.013523,0.002678,0.000431,0.004584
15861000,0.0324,0.013523,0.002678,0.000431,0.003878
15862000,0.0324,0.013523,0.002678,0.000431,0.005171
15863000,0.0324,0.013523,0.002678,0.000431,0.004466
15864000,0.0324,0.013523,0.002678,0.000431,0.004701
15865000,0.0324,0.013523,0.002678,0.000431,0.004936
15866000,0.0324,0.013523,0.002678,0.000431,0.004466
15867000,0.0324,0.013523,0.002678,0.000431,0.004584
15868000,0.0324,0.013523,0.002678,0.000431,0.004231
15869000,0.0324,0.013523,0.002678,0.000431,0.004819
15870000,0.0324,0.013523,0.002678,0.000431,0.005171
15871000,0.0324,0.013523,0.002678,0.000431,0.005171
15872000,0.0324,0.013523,0.002678,0.000431,0.004936
15873000,0.0324,0.013523,0.002678,0.000431,0.004701
15874000,0.0324,0.013523,0.002678,0.000431,0.005641
15875000,0.0324,0.013523,0.002678,0.000431,0.004466
15876000,0.0324,0.013523,0.002678,0.000431,0.004466
15877000,0.0324,0.013523,0.002678,0.000431,0.004349
15878000,0.0324,0.013523,0.002678,0.000431,0.005054
15879000,0.0324,0.013523,0.002678,0.000431,0.005289
15880000,0.0324,0.013523,0.002678,0.000431,0.004819
15881000,0.0324,0.013523,0.002678,0.000431,0.005406
15882000,0.0324,0.013523,0.002678,0.000431,0.004819
15883000,0.0324,0.013523,0.002678,0.000431,0.004584
15884000,0.0324,0.013523,0.002678,0.000431,0.005054
15885000,0.0324,0.013523,0.002678,0.000431,0.004113
15886000,0.0324,0.013523,0.002678,0.000431,0.004231
15887000,0.0324,0.013523,0.002678,0.000431,0.004819
15888000,0.0324,0.013523,0.002678,0.000431,0.004819
15889000,0.0324,0.013523,0.002678,0.000431,0.005054
15890000,0.0324,0.013523,0.002678,0.000431,0.004466
15891000,0.0324,0.013523,0.002678,0.000431,0.004231
15892000,0.0324,0.013523,0.002678,0.000431,0.005289
15893000,0.0324,0.013523,0.002678,0.000431,0.005641
15894000,0.0324,0.013523,0.002678,0.000431,0.004466
15895000,0.0324,0.013523,0.002678,0.000431,0.004584
15896000,0.0324,0.013523,0.002678,0.000431,0.004584
15897000,0.0324,0.013523,0.002678,0.000431,0.004701
15898000,0.0324,0.013523,0.002678,0.000431,0.004701
15899000,0.0324,0.013523,0.002678,0.000431,0.004701
15900000,0.0324,0.013523,0.002678,0.000431,0.004819
15901000,0.0324,0.013523,0.002678,0.000431,0.005171
15902000,0.0324,0.013523,0.002678,0.000431,0.004584
15903000,0.0324,0.013523,0.002678,0.000431,0.005054
15904000,0.0324,0.013523,0.002678,0.000431,0.005054
15905000,0.0324,0.013523,0.002678,0.000431,0.004584
15906000,0.0324,0.013523,0.002678,0.000431,0.004936
15907000,0.0324,0.013523,0.002678,0.000431,0.004466
15908000,0.0324,0.013523,0.002678,0.000431,0.004936
15909000,0.0324,0.013523,0.002678,0.000431,0.004819
15910000,0.0324,0.013523,0.002678,0.000431,0.004584
15911000,0.0324,0.013523,0.002678,0.000431,0.005289
15912000,0.0324,0.013523,0.002678,0.000431,0.004936
15913000,0.0324,0.013523,0.002678,0.000431,0.004584
15914000,0.0324,0.013523,0.002678,0.000431,0.004113
15915000,0.0324,0.013523,0.002678,0.000431,0.004231
15916000,0.0324,0.013523,0.002678,0.000431,0.004819
15917000,0.0324,0.013523,0.002678,0.000431,0.003878
15918000,0.0324,0.013523,0.002678,0.000431,0.004349
15919000,0.0324,0.013523,0.002678,0.000431,0.005641
15920000,0.0324,0.013523,0.002678,0.000431,0.004701
15921000,0.0324,0.013523,0.002678,0.000431,0.004701
15922000,0.0324,0.013523,0.002678,0.000431,0.003761
15923000,0.0324,0.013523,0.002678,0.000431,0.004701
15924000,0.0324,0.013523,0.002678,0.000431,0.004584
15925000,0.0324,0.013523,0.002678,0.000431,0.005171
15926000,0.0324,0.013523,0.002678,0.000431,0.005171
15927000,0.0324,0.013523,0.002678,0.000431,0.003996
15928000,0.0324,0.013523,0.002678,0.000431,0.005054
15929000,0.0324,0.013523,0.002678,0.000431,0.005171
15930000,0.0324,0.013523,0.002678,0.000431,0.004819
15931000,0.0324,0.013523,0.002678,0.000431,0.004584
15932000,0.0324,0.013523,0.002678,0.000431,0.005171
15933000,0.0324,0.013523,0.002678,0.000431,0.004936
15934000,0.0324,0.013523,0.002678,0.000431,0.004936
15935000,0.0324,0.013523,0.002678,0.000431,0.004819
15936000,0.0324,0.013523,0.002678,0.000431,0.004584
15937000,0.0324,0.013523,0.002678,0.000431,0.005171
15938000,0.0324,0.013523,0.002678,0.000431,0.004701
15939000,0.0324,0.013523,0.002678,0.000431,0.004466
15940000,0.0324,0.013523,0.002678,0.000431,0.005524
15941000,0.0324,0.013523,0.002678,0.000431,0.004701
15942000,0.0324,0.013523,0.002678,0.000431,0.005171
15943000,0.0324,0.013523,0.002678,0.000431,0.004466
15944000,0.0324,0.013523,0.002678,0.000431,0.004349
15945000,0.0324,0.013523,0.002678,0.000431,0.005171
15946000,0.0324,0.013523,0.002678,0.000431,0.004466
15947000,0.0324,0.013523,0.002678,0.000431,0.005054
15948000,0.0324,0.013523,0.002678,0.000431,0.004113
15949000,0.0324,0.013523,0.002678,0.000431,0.005406
15950000,0.0324,0.013523,0.002678,0.000431,0.004819
15951000,0.0324,0.013523,0.002678,0.000431,0.004819
15952000,0.0324,0.013523,0.002678,0.000431,0.004819
15953000,0.0324,0.013523,0.002678,0.000431,0.004936
15954000,0.0324,0.013523,0.002678,0.000431,0.004231
15955000,0.0324,0.013523,0.002678,0.000431,0.005406
15956000,0.0324,0.013523,0.002678,0.000431,0.004584
15957000,0.0324,0.013523,0.002678,0.000431,0.004819
15958000,0.0324,0.013523,0.002678,0.000431,0.004349
15959000,0.0324,0.013523,0.002678,0.000431,0.005171
15960000,0.0324,0.013523,0.002678,0.000431,0.004819
15961000,0.0324,0.013523,0.002678,0.000431,0.004231
15962000,0.0324,0.013523,0.002678,0.000431,0.004701
15963000,0.0324,0.013523,0.002678,0.000431,0.004466
15964000,0.0324,0.013523,0.002678,0.000431,0.004701
15965000,0.0324,0.013523,0.002678,0.000431,0.004701
15966000,0.0324,0.013523,0.002678,0.000431,0.004466
15967000,0.0324,0.013523,0.002678,0.000431,0.004936
15968000,0.0324,0.013523,0.002678,0.000431,0.004231
15969000,0.0324,0.013523,0.002678,0.000431,0.004466
15970000,0.0324,0.013523,0.002678,0.000431,0.004936
15971000,0.0324,0.013523,0.002678,0.000431,0.005054
15972000,0.0324,0.013523,0.002678,0.000431,0.004819
15973000,0.0324,0.013523,0.002678,0.000431,0.004936
15974000,0.0324,0.013523,0.002678,0.000431,0.005054
15975000,0.0324,0.013523,0.002678,0.000431,0.005289
15976000,0.0324,0.013523,0.002678,0.000431,0.004584
15977000,0.0324,0.013523,0.002678,0.000431,0.005171
15978000,0.0324,0.013523,0.002678,0.000431,0.004936
15979000,0.0324,0.013523,0.002678,0.000431,0.005171
15980000,0.0324,0.013523,0.002678,0.000431,0.004466
15981000,0.0324,0.013523,0.002678,0.000431,0.004936
15982000,0.0324,0.013523,0.002678,0.000431,0.005406
15983000,0.0324,0.013523,0.002678,0.000431,0.004701
15984000,0.0324,0.013523,0.002678,0.000431,0.004936
15985000,0.0324,0.013523,0.002678,0.000431,0.004936
15986000,0.0324,0.013523,0.002678,0.000431,0.005171
15987000,0.0324,0.013523,0.002678,0.000431,0.004584
15988000,0.0324,0.013523,0.002678,0.000431,0.005289
15989000,0.0324,0.013523,0.002678,0.000431,0.004349
15990000,0.0324,0.013523,0.002678,0.000431,0.004936
15991000,0.0324,0.013523,0.002678,0.000431,0.005289
15992000,0.0324,0.013523,0.002678,0.000431,0.005054
15993000,0.0324,0.013523,0.002678,0.000431,0.004819
15994000,0.0324,0.013523,0.002678,0.000431,0.005171
15995000,0.0324,0.013523,0.002678,0.000431,0.004701
15996000,0.0324,0.013523,0.002678,0.000431,0.004349
15997000,0.0324,0.013523,0.002678,0.000431,0.005289
15998000,0.0324,0.013523,0.002678,0.000431,0.005406
15999000,0.0324,0.013523,0.002678,0.000431,0.004819
