Cycle,Area(mm^2),PeakDynamic(W),SubthresholdLeakage(W),GateLeakage(W),RunTimeDynamic(W)
4000000,0.0324,0.013523,0.002678,0.000431,1.226877
4001000,0.0324,0.013523,0.002678,0.000431,1.194792
4002000,0.0324,0.013523,0.002678,0.000431,1.165057
4003000,0.0324,0.013523,0.002678,0.000431,1.058106
4004000,0.0324,0.013523,0.002678,0.000431,1.149308
4005000,0.0324,0.013523,0.002678,0.000431,1.237807
4006000,0.0324,0.013523,0.002678,0.000431,1.134617
4007000,0.0324,0.013523,0.002678,0.000431,1.174107
4008000,0.0324,0.013523,0.002678,0.000431,1.175399
4009000,0.0324,0.013523,0.002678,0.000431,1.235221
4010000,0.0324,0.013523,0.002678,0.000431,1.250617
4011000,0.0324,0.013523,0.002678,0.000431,1.217357
4012000,0.0324,0.013523,0.002678,0.000431,1.286346
4013000,0.0324,0.013523,0.002678,0.000431,1.238159
4014000,0.0324,0.013523,0.002678,0.000431,1.139201
4015000,0.0324,0.013523,0.002678,0.000431,1.209130
4016000,0.0324,0.013523,0.002678,0.000431,1.166115
4017000,0.0324,0.013523,0.002678,0.000431,1.135322
4018000,0.0324,0.013523,0.002678,0.000431,1.156830
4019000,0.0324,0.013523,0.002678,0.000431,1.062102
4020000,0.0324,0.013523,0.002678,0.000431,1.058224
4021000,0.0324,0.013523,0.002678,0.000431,1.064688
4022000,0.0324,0.013523,0.002678,0.000431,1.072915
4023000,0.0324,0.013523,0.002678,0.000431,1.035423
4024000,0.0324,0.013523,0.002678,0.000431,0.895682
4025000,0.0324,0.013523,0.002678,0.000431,0.795196
4026000,0.0324,0.013523,0.002678,0.000431,0.767106
4027000,0.0324,0.013523,0.002678,0.000431,0.805773
4028000,0.0324,0.013523,0.002678,0.000431,0.840562
4029000,0.0324,0.013523,0.002678,0.000431,0.788849
4030000,0.0324,0.013523,0.002678,0.000431,0.872412
4031000,0.0324,0.013523,0.002678,0.000431,0.908023
4032000,0.0324,0.013523,0.002678,0.000431,0.976659
4033000,0.0324,0.013523,0.002678,0.000431,0.952566
4034000,0.0324,0.013523,0.002678,0.000431,0.858896
4035000,0.0324,0.013523,0.002678,0.000431,0.879346
4036000,0.0324,0.013523,0.002678,0.000431,0.908023
4037000,0.0324,0.013523,0.002678,0.000431,0.840679
4038000,0.0324,0.013523,0.002678,0.000431,0.787321
4039000,0.0324,0.013523,0.002678,0.000431,0.775804
4040000,0.0324,0.013523,0.002678,0.000431,0.764991
4041000,0.0324,0.013523,0.002678,0.000431,0.731143
4042000,0.0324,0.013523,0.002678,0.000431,0.673789
4043000,0.0324,0.013523,0.002678,0.000431,0.692594
4044000,0.0324,0.013523,0.002678,0.000431,0.641469
4045000,0.0324,0.013523,0.002678,0.000431,0.689303
4046000,0.0324,0.013523,0.002678,0.000431,0.768047
4047000,0.0324,0.013523,0.002678,0.000431,0.761113
4048000,0.0324,0.013523,0.002678,0.000431,0.741368
4049000,0.0324,0.013523,0.002678,0.000431,0.778272
4050000,0.0324,0.013523,0.002678,0.000431,0.733728
4051000,0.0324,0.013523,0.002678,0.000431,0.664739
4052000,0.0324,0.013523,0.002678,0.000431,0.621607
4053000,0.0324,0.013523,0.002678,0.000431,0.653927
4054000,0.0324,0.013523,0.002678,0.000431,0.651341
4055000,0.0324,0.013523,0.002678,0.000431,0.639823
4056000,0.0324,0.013523,0.002678,0.000431,0.727970
4057000,0.0324,0.013523,0.002678,0.000431,0.780387
4058000,0.0324,0.013523,0.002678,0.000431,0.769575
4059000,0.0324,0.013523,0.002678,0.000431,0.847143
4060000,0.0324,0.013523,0.002678,0.000431,0.946925
4061000,0.0324,0.013523,0.002678,0.000431,0.997344
4062000,0.0324,0.013523,0.002678,0.000431,1.125450
4063000,0.0324,0.013523,0.002678,0.000431,1.242155
4064000,0.0324,0.013523,0.002678,0.000431,1.265896
4065000,0.0324,0.013523,0.002678,0.000431,1.351809
4066000,0.0324,0.013523,0.002678,0.000431,1.344640
4067000,0.0324,0.013523,0.002678,0.000431,1.333357
4068000,0.0324,0.013523,0.002678,0.000431,1.323015
4069000,0.0324,0.013523,0.002678,0.000431,1.258609
4070000,0.0324,0.013523,0.002678,0.000431,1.153187
4071000,0.0324,0.013523,0.002678,0.000431,1.100299
4072000,0.0324,0.013523,0.002678,0.000431,1.061044
4073000,0.0324,0.013523,0.002678,0.000431,1.077968
4074000,0.0324,0.013523,0.002678,0.000431,1.102532
4075000,0.0324,0.013523,0.002678,0.000431,1.124627
4076000,0.0324,0.013523,0.002678,0.000431,1.257081
4077000,0.0324,0.013523,0.002678,0.000431,1.308206
4078000,0.0324,0.013523,0.002678,0.000431,1.327363
4079000,0.0324,0.013523,0.002678,0.000431,1.422796
4080000,0.0324,0.013523,0.002678,0.000431,1.440660
4081000,0.0324,0.013523,0.002678,0.000431,1.387420
4082000,0.0324,0.013523,0.002678,0.000431,1.337471
4083000,0.0324,0.013523,0.002678,0.000431,1.288344
4084000,0.0324,0.013523,0.002678,0.000431,1.210188
4085000,0.0324,0.013523,0.002678,0.000431,1.093482
4086000,0.0324,0.013523,0.002678,0.000431,1.054815
4087000,0.0324,0.013523,0.002678,0.000431,1.029664
4088000,0.0324,0.013523,0.002678,0.000431,1.076911
4089000,0.0324,0.013523,0.002678,0.000431,1.245681
4090000,0.0324,0.013523,0.002678,0.000431,1.197847
4091000,0.0324,0.013523,0.002678,0.000431,1.274358
4092000,0.0324,0.013523,0.002678,0.000431,1.451120
4093000,0.0324,0.013523,0.002678,0.000431,1.454529
4094000,0.0324,0.013523,0.002678,0.000431,1.490727
4095000,0.0324,0.013523,0.002678,0.000431,1.454176
4096000,0.0324,0.013523,0.002678,0.000431,1.448065
4097000,0.0324,0.013523,0.002678,0.000431,1.300919
4098000,0.0324,0.013523,0.002678,0.000431,1.278354
4099000,0.0324,0.013523,0.002678,0.000431,1.219355
4100000,0.0324,0.013523,0.002678,0.000431,1.142021
4101000,0.0324,0.013523,0.002678,0.000431,1.127330
4102000,0.0324,0.013523,0.002678,0.000431,1.066568
4103000,0.0324,0.013523,0.002678,0.000431,1.046471
4104000,0.0324,0.013523,0.002678,0.000431,0.967374
4105000,0.0324,0.013523,0.002678,0.000431,0.937405
4106000,0.0324,0.013523,0.002678,0.000431,0.974544
4107000,0.0324,0.013523,0.002678,0.000431,0.848436
4108000,0.0324,0.013523,0.002678,0.000431,0.841267
4109000,0.0324,0.013523,0.002678,0.000431,0.956679
4110000,0.0324,0.013523,0.002678,0.000431,0.966199
4111000,0.0324,0.013523,0.002678,0.000431,1.012153
4112000,0.0324,0.013523,0.002678,0.000431,1.032368
4113000,0.0324,0.013523,0.002678,0.000431,1.076558
4114000,0.0324,0.013523,0.002678,0.000431,1.115225
4115000,0.0324,0.013523,0.002678,0.000431,1.116753
4116000,0.0324,0.013523,0.002678,0.000431,1.043768
4117000,0.0324,0.013523,0.002678,0.000431,1.103942
4118000,0.0324,0.013523,0.002678,0.000431,1.019557
4119000,0.0324,0.013523,0.002678,0.000431,0.963614
4120000,0.0324,0.013523,0.002678,0.000431,1.046588
4121000,0.0324,0.013523,0.002678,0.000431,1.075265
4122000,0.0324,0.013523,0.002678,0.000431,1.074678
4123000,0.0324,0.013523,0.002678,0.000431,1.011448
4124000,0.0324,0.013523,0.002678,0.000431,0.961263
4125000,0.0324,0.013523,0.002678,0.000431,1.042005
4126000,0.0324,0.013523,0.002678,0.000431,1.204899
4127000,0.0324,0.013523,0.002678,0.000431,1.087958
4128000,0.0324,0.013523,0.002678,0.000431,1.135557
4129000,0.0324,0.013523,0.002678,0.000431,1.129681
4130000,0.0324,0.013523,0.002678,0.000431,1.063277
4131000,0.0324,0.013523,0.002678,0.000431,1.241333
4132000,0.0324,0.013523,0.002678,0.000431,1.255201
4133000,0.0324,0.013523,0.002678,0.000431,1.251910
4134000,0.0324,0.013523,0.002678,0.000431,1.233458
4135000,0.0324,0.013523,0.002678,0.000431,1.283760
4136000,0.0324,0.013523,0.002678,0.000431,1.301860
4137000,0.0324,0.013523,0.002678,0.000431,1.322075
4138000,0.0324,0.013523,0.002678,0.000431,1.444891
4139000,0.0324,0.013523,0.002678,0.000431,1.411043
4140000,0.0324,0.013523,0.002678,0.000431,1.481678
4141000,0.0324,0.013523,0.002678,0.000431,1.641281
4142000,0.0324,0.013523,0.002678,0.000431,1.677362
4143000,0.0324,0.013523,0.002678,0.000431,1.603555
4144000,0.0324,0.013523,0.002678,0.000431,1.525046
4145000,0.0324,0.013523,0.002678,0.000431,1.527749
4146000,0.0324,0.013523,0.002678,0.000431,1.435019
4147000,0.0324,0.013523,0.002678,0.000431,1.333710
4148000,0.0324,0.013523,0.002678,0.000431,1.188680
4149000,0.0324,0.013523,0.002678,0.000431,1.242273
4150000,0.0324,0.013523,0.002678,0.000431,1.195614
4151000,0.0324,0.013523,0.002678,0.000431,1.189503
4152000,0.0324,0.013523,0.002678,0.000431,1.179630
4153000,0.0324,0.013523,0.002678,0.000431,1.260255
4154000,0.0324,0.013523,0.002678,0.000431,1.316433
4155000,0.0324,0.013523,0.002678,0.000431,1.253556
4156000,0.0324,0.013523,0.002678,0.000431,1.375315
4157000,0.0324,0.013523,0.002678,0.000431,1.346285
4158000,0.0324,0.013523,0.002678,0.000431,1.496839
4159000,0.0324,0.013523,0.002678,0.000431,1.415157
4160000,0.0324,0.013523,0.002678,0.000431,1.331947
4161000,0.0324,0.013523,0.002678,0.000431,1.258374
4162000,0.0324,0.013523,0.002678,0.000431,1.239805
4163000,0.0324,0.013523,0.002678,0.000431,1.185859
4164000,0.0324,0.013523,0.002678,0.000431,1.059046
4165000,0.0324,0.013523,0.002678,0.000431,0.990763
4166000,0.0324,0.013523,0.002678,0.000431,0.982888
4167000,0.0324,0.013523,0.002678,0.000431,0.978070
4168000,0.0324,0.013523,0.002678,0.000431,0.926240
4169000,0.0324,0.013523,0.002678,0.000431,1.017559
4170000,0.0324,0.013523,0.002678,0.000431,1.020380
4171000,0.0324,0.013523,0.002678,0.000431,1.073502
4172000,0.0324,0.013523,0.002678,0.000431,1.170816
4173000,0.0324,0.013523,0.002678,0.000431,1.126273
4174000,0.0324,0.013523,0.002678,0.000431,1.319019
4175000,0.0324,0.013523,0.002678,0.000431,1.363562
4176000,0.0324,0.013523,0.002678,0.000431,1.346873
4177000,0.0324,0.013523,0.002678,0.000431,1.296923
4178000,0.0324,0.013523,0.002678,0.000431,1.292340
4179000,0.0324,0.013523,0.002678,0.000431,1.251088
4180000,0.0324,0.013523,0.002678,0.000431,1.119338
4181000,0.0324,0.013523,0.002678,0.000431,1.064805
4182000,0.0324,0.013523,0.002678,0.000431,1.011683
4183000,0.0324,0.013523,0.002678,0.000431,1.051055
4184000,0.0324,0.013523,0.002678,0.000431,1.003338
4185000,0.0324,0.013523,0.002678,0.000431,0.966317
4186000,0.0324,0.013523,0.002678,0.000431,1.030605
4187000,0.0324,0.013523,0.002678,0.000431,0.954446
4188000,0.0324,0.013523,0.002678,0.000431,0.873587
4189000,0.0324,0.013523,0.002678,0.000431,0.929060
4190000,0.0324,0.013523,0.002678,0.000431,0.917190
4191000,0.0324,0.013523,0.002678,0.000431,0.925534
4192000,0.0324,0.013523,0.002678,0.000431,0.992526
4193000,0.0324,0.013523,0.002678,0.000431,0.881461
4194000,0.0324,0.013523,0.002678,0.000431,0.911666
4195000,0.0324,0.013523,0.002678,0.000431,0.987942
4196000,0.0324,0.013523,0.002678,0.000431,1.096420
4197000,0.0324,0.013523,0.002678,0.000431,0.959030
4198000,0.0324,0.013523,0.002678,0.000431,0.997344
4199000,0.0324,0.013523,0.002678,0.000431,0.997814
4200000,0.0324,0.013523,0.002678,0.000431,0.930118
4201000,0.0324,0.013523,0.002678,0.000431,0.854547
4202000,0.0324,0.013523,0.002678,0.000431,0.805773
4203000,0.0324,0.013523,0.002678,0.000431,0.772748
4204000,0.0324,0.013523,0.002678,0.000431,0.665797
4205000,0.0324,0.013523,0.002678,0.000431,0.668265
4206000,0.0324,0.013523,0.002678,0.000431,0.635357
4207000,0.0324,0.013523,0.002678,0.000431,0.638883
4208000,0.0324,0.013523,0.002678,0.000431,0.769810
4209000,0.0324,0.013523,0.002678,0.000431,0.753826
4210000,0.0324,0.013523,0.002678,0.000431,0.686600
4211000,0.0324,0.013523,0.002678,0.000431,0.793550
4212000,0.0324,0.013523,0.002678,0.000431,0.903322
4213000,0.0324,0.013523,0.002678,0.000431,0.975249
4214000,0.0324,0.013523,0.002678,0.000431,0.856310
4215000,0.0324,0.013523,0.002678,0.000431,0.980773
4216000,0.0324,0.013523,0.002678,0.000431,1.152834
4217000,0.0324,0.013523,0.002678,0.000431,1.247209
4218000,0.0324,0.013523,0.002678,0.000431,1.152481
4219000,0.0324,0.013523,0.002678,0.000431,1.362269
4220000,0.0324,0.013523,0.002678,0.000431,1.349694
4221000,0.0324,0.013523,0.002678,0.000431,1.432081
4222000,0.0324,0.013523,0.002678,0.000431,1.512940
4223000,0.0324,0.013523,0.002678,0.000431,1.502010
4224000,0.0324,0.013523,0.002678,0.000431,1.428320
4225000,0.0324,0.013523,0.002678,0.000431,1.383894
4226000,0.0324,0.013523,0.002678,0.000431,1.270480
4227000,0.0324,0.013523,0.002678,0.000431,1.120984
4228000,0.0324,0.013523,0.002678,0.000431,1.059282
4229000,0.0324,0.013523,0.002678,0.000431,1.053288
4230000,0.0324,0.013523,0.002678,0.000431,0.904262
4231000,0.0324,0.013523,0.002678,0.000431,0.872412
4232000,0.0324,0.013523,0.002678,0.000431,0.808359
4233000,0.0324,0.013523,0.002678,0.000431,0.767342
4234000,0.0324,0.013523,0.002678,0.000431,0.712808
4235000,0.0324,0.013523,0.002678,0.000431,0.680136
4236000,0.0324,0.013523,0.002678,0.000431,0.718332
4237000,0.0324,0.013523,0.002678,0.000431,0.817996
4238000,0.0324,0.013523,0.002678,0.000431,0.858191
4239000,0.0324,0.013523,0.002678,0.000431,1.072210
4240000,0.0324,0.013523,0.002678,0.000431,1.244271
4241000,0.0324,0.013523,0.002678,0.000431,1.201491
4242000,0.0324,0.013523,0.002678,0.000431,1.366265
4243000,0.0324,0.013523,0.002678,0.000431,1.436194
4244000,0.0324,0.013523,0.002678,0.000431,1.437487
4245000,0.0324,0.013523,0.002678,0.000431,1.420328
4246000,0.0324,0.013523,0.002678,0.000431,1.408810
4247000,0.0324,0.013523,0.002678,0.000431,1.485791
4248000,0.0324,0.013523,0.002678,0.000431,1.559246
4249000,0.0324,0.013523,0.002678,0.000431,1.349341
4250000,0.0324,0.013523,0.002678,0.000431,1.321839
4251000,0.0324,0.013523,0.002678,0.000431,1.315258
4252000,0.0324,0.013523,0.002678,0.000431,1.244623
4253000,0.0324,0.013523,0.002678,0.000431,1.097126
4254000,0.0324,0.013523,0.002678,0.000431,0.979127
4255000,0.0324,0.013523,0.002678,0.000431,0.957150
4256000,0.0324,0.013523,0.002678,0.000431,0.955387
4257000,0.0324,0.013523,0.002678,0.000431,0.974661
4258000,0.0324,0.013523,0.002678,0.000431,1.142256
4259000,0.0324,0.013523,0.002678,0.000431,0.987707
4260000,0.0324,0.013523,0.002678,0.000431,1.072680
4261000,0.0324,0.013523,0.002678,0.000431,1.173636
4262000,0.0324,0.013523,0.002678,0.000431,1.274005
4263000,0.0324,0.013523,0.002678,0.000431,1.302682
4264000,0.0324,0.013523,0.002678,0.000431,1.266484
4265000,0.0324,0.013523,0.002678,0.000431,1.250852
4266000,0.0324,0.013523,0.002678,0.000431,1.260372
4267000,0.0324,0.013523,0.002678,0.000431,1.306208
4268000,0.0324,0.013523,0.002678,0.000431,1.386245
4269000,0.0324,0.013523,0.002678,0.000431,1.328539
4270000,0.0324,0.013523,0.002678,0.000431,1.176222
4271000,0.0324,0.013523,0.002678,0.000431,1.079379
4272000,0.0324,0.013523,0.002678,0.000431,1.019204
4273000,0.0324,0.013523,0.002678,0.000431,0.986179
4274000,0.0324,0.013523,0.002678,0.000431,1.027431
4275000,0.0324,0.013523,0.002678,0.000431,1.013446
4276000,0.0324,0.013523,0.002678,0.000431,0.872177
4277000,0.0324,0.013523,0.002678,0.000431,1.059399
4278000,0.0324,0.013523,0.002678,0.000431,0.994406
4279000,0.0324,0.013523,0.002678,0.000431,0.942576
4280000,0.0324,0.013523,0.002678,0.000431,0.791200
4281000,0.0324,0.013523,0.002678,0.000431,0.775686
4282000,0.0324,0.013523,0.002678,0.000431,0.748302
4283000,0.0324,0.013523,0.002678,0.000431,0.680723
4284000,0.0324,0.013523,0.002678,0.000431,0.649931
4285000,0.0324,0.013523,0.002678,0.000431,0.735256
4286000,0.0324,0.013523,0.002678,0.000431,0.766284
4287000,0.0324,0.013523,0.002678,0.000431,0.822110
4288000,0.0324,0.013523,0.002678,0.000431,0.872177
4289000,0.0324,0.013523,0.002678,0.000431,0.942811
4290000,0.0324,0.013523,0.002678,0.000431,0.921656
4291000,0.0324,0.013523,0.002678,0.000431,0.905085
4292000,0.0324,0.013523,0.002678,0.000431,0.842912
4293000,0.0324,0.013523,0.002678,0.000431,0.818349
4294000,0.0324,0.013523,0.002678,0.000431,0.769222
4295000,0.0324,0.013523,0.002678,0.000431,0.768752
4296000,0.0324,0.013523,0.002678,0.000431,0.805656
4297000,0.0324,0.013523,0.002678,0.000431,0.791082
4298000,0.0324,0.013523,0.002678,0.000431,0.734904
4299000,0.0324,0.013523,0.002678,0.000431,0.788614
4300000,0.0324,0.013523,0.002678,0.000431,0.839269
4301000,0.0324,0.013523,0.002678,0.000431,0.847378
4302000,0.0324,0.013523,0.002678,0.000431,0.849259
4303000,0.0324,0.013523,0.002678,0.000431,0.809887
4304000,0.0324,0.013523,0.002678,0.000431,0.844087
4305000,0.0324,0.013523,0.002678,0.000431,1.005101
4306000,0.0324,0.013523,0.002678,0.000431,1.023200
4307000,0.0324,0.013523,0.002678,0.000431,0.899091
4308000,0.0324,0.013523,0.002678,0.000431,0.933056
4309000,0.0324,0.013523,0.002678,0.000431,0.940343
4310000,0.0324,0.013523,0.002678,0.000431,0.969372
4311000,0.0324,0.013523,0.002678,0.000431,0.993113
4312000,0.0324,0.013523,0.002678,0.000431,0.925417
4313000,0.0324,0.013523,0.002678,0.000431,1.010155
4314000,0.0324,0.013523,0.002678,0.000431,0.934114
4315000,0.0324,0.013523,0.002678,0.000431,0.864185
4316000,0.0324,0.013523,0.002678,0.000431,0.810357
4317000,0.0324,0.013523,0.002678,0.000431,0.826223
4318000,0.0324,0.013523,0.002678,0.000431,0.820817
4319000,0.0324,0.013523,0.002678,0.000431,0.762405
4320000,0.0324,0.013523,0.002678,0.000431,0.735844
4321000,0.0324,0.013523,0.002678,0.000431,0.814823
4322000,0.0324,0.013523,0.002678,0.000431,1.050114
4323000,0.0324,0.013523,0.002678,0.000431,0.996286
4324000,0.0324,0.013523,0.002678,0.000431,0.962908
4325000,0.0324,0.013523,0.002678,0.000431,1.065746
4326000,0.0324,0.013523,0.002678,0.000431,1.039537
4327000,0.0324,0.013523,0.002678,0.000431,0.958442
4328000,0.0324,0.013523,0.002678,0.000431,0.961028
4329000,0.0324,0.013523,0.002678,0.000431,0.998284
4330000,0.0324,0.013523,0.002678,0.000431,1.047529
4331000,0.0324,0.013523,0.002678,0.000431,1.074090
4332000,0.0324,0.013523,0.002678,0.000431,1.026609
4333000,0.0324,0.013523,0.002678,0.000431,1.032955
4334000,0.0324,0.013523,0.002678,0.000431,1.032015
4335000,0.0324,0.013523,0.002678,0.000431,1.077851
4336000,0.0324,0.013523,0.002678,0.000431,1.093952
4337000,0.0324,0.013523,0.002678,0.000431,1.083257
4338000,0.0324,0.013523,0.002678,0.000431,1.001340
4339000,0.0324,0.013523,0.002678,0.000431,1.185389
4340000,0.0324,0.013523,0.002678,0.000431,1.210775
4341000,0.0324,0.013523,0.002678,0.000431,1.296336
4342000,0.0324,0.013523,0.002678,0.000431,1.499425
4343000,0.0324,0.013523,0.002678,0.000431,1.471688
4344000,0.0324,0.013523,0.002678,0.000431,1.559481
4345000,0.0324,0.013523,0.002678,0.000431,1.617658
4346000,0.0324,0.013523,0.002678,0.000431,1.728957
4347000,0.0324,0.013523,0.002678,0.000431,1.775968
4348000,0.0324,0.013523,0.002678,0.000431,1.685119
4349000,0.0324,0.013523,0.002678,0.000431,1.752463
4350000,0.0324,0.013523,0.002678,0.000431,1.704629
4351000,0.0324,0.013523,0.002678,0.000431,1.647980
4352000,0.0324,0.013523,0.002678,0.000431,1.549492
4353000,0.0324,0.013523,0.002678,0.000431,1.511883
4354000,0.0324,0.013523,0.002678,0.000431,1.376490
4355000,0.0324,0.013523,0.002678,0.000431,1.316786
4356000,0.0324,0.013523,0.002678,0.000431,1.221823
4357000,0.0324,0.013523,0.002678,0.000431,1.243096
4358000,0.0324,0.013523,0.002678,0.000431,1.307854
4359000,0.0324,0.013523,0.002678,0.000431,1.303975
4360000,0.0324,0.013523,0.002678,0.000431,1.222881
4361000,0.0324,0.013523,0.002678,0.000431,1.251910
4362000,0.0324,0.013523,0.002678,0.000431,1.146605
4363000,0.0324,0.013523,0.002678,0.000431,0.946337
4364000,0.0324,0.013523,0.002678,0.000431,0.878993
4365000,0.0324,0.013523,0.002678,0.000431,0.786264
4366000,0.0324,0.013523,0.002678,0.000431,0.696707
4367000,0.0324,0.013523,0.002678,0.000431,0.809652
4368000,0.0324,0.013523,0.002678,0.000431,0.821992
4369000,0.0324,0.013523,0.002678,0.000431,0.767577
4370000,0.0324,0.013523,0.002678,0.000431,1.043533
4371000,0.0324,0.013523,0.002678,0.000431,1.057871
4372000,0.0324,0.013523,0.002678,0.000431,0.990057
4373000,0.0324,0.013523,0.002678,0.000431,0.965494
4374000,0.0324,0.013523,0.002678,0.000431,1.014268
4375000,0.0324,0.013523,0.002678,0.000431,0.964319
4376000,0.0324,0.013523,0.002678,0.000431,1.000282
4377000,0.0324,0.013523,0.002678,0.000431,0.861364
4378000,0.0324,0.013523,0.002678,0.000431,0.819406
4379000,0.0324,0.013523,0.002678,0.000431,0.872412
4380000,0.0324,0.013523,0.002678,0.000431,0.891451
4381000,0.0324,0.013523,0.002678,0.000431,0.777566
4382000,0.0324,0.013523,0.002678,0.000431,0.803775
4383000,0.0324,0.013523,0.002678,0.000431,0.888160
4384000,0.0324,0.013523,0.002678,0.000431,0.857838
4385000,0.0324,0.013523,0.002678,0.000431,0.846673
4386000,0.0324,0.013523,0.002678,0.000431,0.825165
4387000,0.0324,0.013523,0.002678,0.000431,0.857368
4388000,0.0324,0.013523,0.002678,0.000431,0.868063
4389000,0.0324,0.013523,0.002678,0.000431,0.899678
4390000,0.0324,0.013523,0.002678,0.000431,0.881461
4391000,0.0324,0.013523,0.002678,0.000431,1.019439
4392000,0.0324,0.013523,0.002678,0.000431,1.036951
4393000,0.0324,0.013523,0.002678,0.000431,1.041652
4394000,0.0324,0.013523,0.002678,0.000431,1.154127
4395000,0.0324,0.013523,0.002678,0.000431,1.087841
4396000,0.0324,0.013523,0.002678,0.000431,1.065393
4397000,0.0324,0.013523,0.002678,0.000431,0.989000
4398000,0.0324,0.013523,0.002678,0.000431,0.876290
4399000,0.0324,0.013523,0.002678,0.000431,0.818114
4400000,0.0324,0.013523,0.002678,0.000431,0.810944
4401000,0.0324,0.013523,0.002678,0.000431,0.987589
4402000,0.0324,0.013523,0.002678,0.000431,0.932234
4403000,0.0324,0.013523,0.002678,0.000431,0.935642
4404000,0.0324,0.013523,0.002678,0.000431,0.990998
4405000,0.0324,0.013523,0.002678,0.000431,1.026256
4406000,0.0324,0.013523,0.002678,0.000431,0.940578
4407000,0.0324,0.013523,0.002678,0.000431,0.926710
4408000,0.0324,0.013523,0.002678,0.000431,1.071387
4409000,0.0324,0.013523,0.002678,0.000431,1.056461
4410000,0.0324,0.013523,0.002678,0.000431,1.098301
4411000,0.0324,0.013523,0.002678,0.000431,1.287051
4412000,0.0324,0.013523,0.002678,0.000431,1.249090
4413000,0.0324,0.013523,0.002678,0.000431,1.163764
4414000,0.0324,0.013523,0.002678,0.000431,1.193616
4415000,0.0324,0.013523,0.002678,0.000431,1.105470
4416000,0.0324,0.013523,0.002678,0.000431,1.019322
4417000,0.0324,0.013523,0.002678,0.000431,0.882167
4418000,0.0324,0.013523,0.002678,0.000431,0.952213
4419000,0.0324,0.013523,0.002678,0.000431,1.001693
4420000,0.0324,0.013523,0.002678,0.000431,1.097126
4421000,0.0324,0.013523,0.002678,0.000431,1.020027
4422000,0.0324,0.013523,0.002678,0.000431,0.975366
4423000,0.0324,0.013523,0.002678,0.000431,1.136968
4424000,0.0324,0.013523,0.002678,0.000431,1.148720
4425000,0.0324,0.013523,0.002678,0.000431,1.065275
4426000,0.0324,0.013523,0.002678,0.000431,0.943281
4427000,0.0324,0.013523,0.002678,0.000431,0.822345
4428000,0.0324,0.013523,0.002678,0.000431,0.781797
4429000,0.0324,0.013523,0.002678,0.000431,0.870766
4430000,0.0324,0.013523,0.002678,0.000431,0.721506
4431000,0.0324,0.013523,0.002678,0.000431,0.687540
4432000,0.0324,0.013523,0.002678,0.000431,0.715982
4433000,0.0324,0.013523,0.002678,0.000431,0.743718
4434000,0.0324,0.013523,0.002678,0.000431,0.733376
4435000,0.0324,0.013523,0.002678,0.000431,0.806243
4436000,0.0324,0.013523,0.002678,0.000431,0.830337
4437000,0.0324,0.013523,0.002678,0.000431,1.213361
4438000,0.0324,0.013523,0.002678,0.000431,1.077381
4439000,0.0324,0.013523,0.002678,0.000431,1.033190
4440000,0.0324,0.013523,0.002678,0.000431,1.078321
4441000,0.0324,0.013523,0.002678,0.000431,1.018029
4442000,0.0324,0.013523,0.002678,0.000431,0.904849
4443000,0.0324,0.013523,0.002678,0.000431,1.079144
4444000,0.0324,0.013523,0.002678,0.000431,1.142844
4445000,0.0324,0.013523,0.002678,0.000431,1.185507
4446000,0.0324,0.013523,0.002678,0.000431,1.224291
4447000,0.0324,0.013523,0.002678,0.000431,1.174459
4448000,0.0324,0.013523,0.002678,0.000431,1.175282
4449000,0.0324,0.013523,0.002678,0.000431,1.133089
4450000,0.0324,0.013523,0.002678,0.000431,1.054815
4451000,0.0324,0.013523,0.002678,0.000431,0.935877
4452000,0.0324,0.013523,0.002678,0.000431,0.948923
4453000,0.0324,0.013523,0.002678,0.000431,0.881814
4454000,0.0324,0.013523,0.002678,0.000431,0.851139
4455000,0.0324,0.013523,0.002678,0.000431,0.912254
4456000,0.0324,0.013523,0.002678,0.000431,0.934467
4457000,0.0324,0.013523,0.002678,0.000431,0.957267
4458000,0.0324,0.013523,0.002678,0.000431,0.912606
4459000,0.0324,0.013523,0.002678,0.000431,1.046824
4460000,0.0324,0.013523,0.002678,0.000431,1.144372
4461000,0.0324,0.013523,0.002678,0.000431,1.158005
4462000,0.0324,0.013523,0.002678,0.000431,1.287051
4463000,0.0324,0.013523,0.002678,0.000431,1.307148
4464000,0.0324,0.013523,0.002678,0.000431,1.309734
4465000,0.0324,0.013523,0.002678,0.000431,1.231578
4466000,0.0324,0.013523,0.002678,0.000431,1.109466
4467000,0.0324,0.013523,0.002678,0.000431,1.074325
4468000,0.0324,0.013523,0.002678,0.000431,0.959383
4469000,0.0324,0.013523,0.002678,0.000431,0.939873
4470000,0.0324,0.013523,0.002678,0.000431,0.892627
4471000,0.0324,0.013523,0.002678,0.000431,0.897563
4472000,0.0324,0.013523,0.002678,0.000431,0.929295
4473000,0.0324,0.013523,0.002678,0.000431,0.905555
4474000,0.0324,0.013523,0.002678,0.000431,0.940461
4475000,0.0324,0.013523,0.002678,0.000431,0.866418
4476000,0.0324,0.013523,0.002678,0.000431,0.876055
4477000,0.0324,0.013523,0.002678,0.000431,0.863832
4478000,0.0324,0.013523,0.002678,0.000431,0.866535
4479000,0.0324,0.013523,0.002678,0.000431,0.888043
4480000,0.0324,0.013523,0.002678,0.000431,0.845263
4481000,0.0324,0.013523,0.002678,0.000431,0.825165
4482000,0.0324,0.013523,0.002678,0.000431,0.825400
4483000,0.0324,0.013523,0.002678,0.000431,0.829044
4484000,0.0324,0.013523,0.002678,0.000431,0.629481
4485000,0.0324,0.013523,0.002678,0.000431,0.613027
4486000,0.0324,0.013523,0.002678,0.000431,0.636768
4487000,0.0324,0.013523,0.002678,0.000431,0.701996
4488000,0.0324,0.013523,0.002678,0.000431,0.782268
4489000,0.0324,0.013523,0.002678,0.000431,0.775804
4490000,0.0324,0.013523,0.002678,0.000431,0.754296
4491000,0.0324,0.013523,0.002678,0.000431,0.672614
4492000,0.0324,0.013523,0.002678,0.000431,0.693769
4493000,0.0324,0.013523,0.002678,0.000431,0.702466
4494000,0.0324,0.013523,0.002678,0.000431,0.576476
4495000,0.0324,0.013523,0.002678,0.000431,0.542980
4496000,0.0324,0.013523,0.002678,0.000431,0.594810
4497000,0.0324,0.013523,0.002678,0.000431,0.637003
4498000,0.0324,0.013523,0.002678,0.000431,0.762758
4499000,0.0324,0.013523,0.002678,0.000431,0.834215
4500000,0.0324,0.013523,0.002678,0.000431,0.886750
4501000,0.0324,0.013523,0.002678,0.000431,0.903322
4502000,0.0324,0.013523,0.002678,0.000431,0.915074
4503000,0.0324,0.013523,0.002678,0.000431,0.966082
4504000,0.0324,0.013523,0.002678,0.000431,0.833627
4505000,0.0324,0.013523,0.002678,0.000431,0.930236
4506000,0.0324,0.013523,0.002678,0.000431,0.996757
4507000,0.0324,0.013523,0.002678,0.000431,0.778624
4508000,0.0324,0.013523,0.002678,0.000431,0.840562
4509000,0.0324,0.013523,0.002678,0.000431,0.877230
4510000,0.0324,0.013523,0.002678,0.000431,0.697530
4511000,0.0324,0.013523,0.002678,0.000431,0.792375
4512000,0.0324,0.013523,0.002678,0.000431,0.744071
4513000,0.0324,0.013523,0.002678,0.000431,0.808359
4514000,0.0324,0.013523,0.002678,0.000431,0.782268
4515000,0.0324,0.013523,0.002678,0.000431,0.779799
4516000,0.0324,0.013523,0.002678,0.000431,0.843852
4517000,0.0324,0.013523,0.002678,0.000431,0.818466
4518000,0.0324,0.013523,0.002678,0.000431,0.782150
4519000,0.0324,0.013523,0.002678,0.000431,0.910138
4520000,0.0324,0.013523,0.002678,0.000431,0.886398
4521000,0.0324,0.013523,0.002678,0.000431,0.780152
4522000,0.0324,0.013523,0.002678,0.000431,0.781327
4523000,0.0324,0.013523,0.002678,0.000431,0.878641
4524000,0.0324,0.013523,0.002678,0.000431,1.013681
4525000,0.0324,0.013523,0.002678,0.000431,0.993348
4526000,0.0324,0.013523,0.002678,0.000431,0.887925
4527000,0.0324,0.013523,0.002678,0.000431,0.910961
4528000,0.0324,0.013523,0.002678,0.000431,1.104882
4529000,0.0324,0.013523,0.002678,0.000431,1.280470
4530000,0.0324,0.013523,0.002678,0.000431,1.063748
4531000,0.0324,0.013523,0.002678,0.000431,1.187622
4532000,0.0324,0.013523,0.002678,0.000431,1.145430
4533000,0.0324,0.013523,0.002678,0.000431,1.237807
4534000,0.0324,0.013523,0.002678,0.000431,1.175164
4535000,0.0324,0.013523,0.002678,0.000431,1.081024
4536000,0.0324,0.013523,0.002678,0.000431,1.148485
4537000,0.0324,0.013523,0.002678,0.000431,1.017677
4538000,0.0324,0.013523,0.002678,0.000431,0.933526
4539000,0.0324,0.013523,0.002678,0.000431,1.020850
4540000,0.0324,0.013523,0.002678,0.000431,0.955974
4541000,0.0324,0.013523,0.002678,0.000431,0.788026
4542000,0.0324,0.013523,0.002678,0.000431,0.877230
4543000,0.0324,0.013523,0.002678,0.000431,0.808006
4544000,0.0324,0.013523,0.002678,0.000431,0.695062
4545000,0.0324,0.013523,0.002678,0.000431,0.800014
4546000,0.0324,0.013523,0.002678,0.000431,0.910843
4547000,0.0324,0.013523,0.002678,0.000431,0.783678
4548000,0.0324,0.013523,0.002678,0.000431,0.674494
4549000,0.0324,0.013523,0.002678,0.000431,0.773453
4550000,0.0324,0.013523,0.002678,0.000431,0.644054
4551000,0.0324,0.013523,0.002678,0.000431,0.687657
4552000,0.0324,0.013523,0.002678,0.000431,0.741720
4553000,0.0324,0.013523,0.002678,0.000431,0.843500
4554000,0.0324,0.013523,0.002678,0.000431,0.808006
4555000,0.0324,0.013523,0.002678,0.000431,0.657805
4556000,0.0324,0.013523,0.002678,0.000431,0.720095
4557000,0.0324,0.013523,0.002678,0.000431,0.676845
4558000,0.0324,0.013523,0.002678,0.000431,0.662036
4559000,0.0324,0.013523,0.002678,0.000431,0.625015
4560000,0.0324,0.013523,0.002678,0.000431,0.674729
4561000,0.0324,0.013523,0.002678,0.000431,0.746069
4562000,0.0324,0.013523,0.002678,0.000431,0.566016
4563000,0.0324,0.013523,0.002678,0.000431,0.640176
4564000,0.0324,0.013523,0.002678,0.000431,0.621136
4565000,0.0324,0.013523,0.002678,0.000431,0.759937
4566000,0.0324,0.013523,0.002678,0.000431,0.984534
4567000,0.0324,0.013523,0.002678,0.000431,0.993583
4568000,0.0324,0.013523,0.002678,0.000431,1.071857
4569000,0.0324,0.013523,0.002678,0.000431,1.186800
4570000,0.0324,0.013523,0.002678,0.000431,1.133677
4571000,0.0324,0.013523,0.002678,0.000431,1.025198
4572000,0.0324,0.013523,0.002678,0.000431,0.972663
4573000,0.0324,0.013523,0.002678,0.000431,0.891334
4574000,0.0324,0.013523,0.002678,0.000431,0.804715
4575000,0.0324,0.013523,0.002678,0.000431,0.768987
4576000,0.0324,0.013523,0.002678,0.000431,0.682839
4577000,0.0324,0.013523,0.002678,0.000431,0.676140
4578000,0.0324,0.013523,0.002678,0.000431,0.656160
4579000,0.0324,0.013523,0.002678,0.000431,0.604330
4580000,0.0324,0.013523,0.002678,0.000431,0.622077
4581000,0.0324,0.013523,0.002678,0.000431,0.678960
4582000,0.0324,0.013523,0.002678,0.000431,0.707872
4583000,0.0324,0.013523,0.002678,0.000431,0.744894
4584000,0.0324,0.013523,0.002678,0.000431,0.848201
4585000,0.0324,0.013523,0.002678,0.000431,0.772278
4586000,0.0324,0.013523,0.002678,0.000431,0.817291
4587000,0.0324,0.013523,0.002678,0.000431,0.765461
4588000,0.0324,0.013523,0.002678,0.000431,0.659686
4589000,0.0324,0.013523,0.002678,0.000431,0.734081
4590000,0.0324,0.013523,0.002678,0.000431,0.735844
4591000,0.0324,0.013523,0.002678,0.000431,0.623722
4592000,0.0324,0.013523,0.002678,0.000431,0.755001
4593000,0.0324,0.013523,0.002678,0.000431,0.751123
4594000,0.0324,0.013523,0.002678,0.000431,0.791082
4595000,0.0324,0.013523,0.002678,0.000431,0.845028
4596000,0.0324,0.013523,0.002678,0.000431,0.721623
4597000,0.0324,0.013523,0.002678,0.000431,0.671439
4598000,0.0324,0.013523,0.002678,0.000431,0.627600
4599000,0.0324,0.013523,0.002678,0.000431,0.595163
4600000,0.0324,0.013523,0.002678,0.000431,0.552735
4601000,0.0324,0.013523,0.002678,0.000431,0.547564
4602000,0.0324,0.013523,0.002678,0.000431,0.629481
4603000,0.0324,0.013523,0.002678,0.000431,0.793668
4604000,0.0324,0.013523,0.002678,0.000431,0.668383
4605000,0.0324,0.013523,0.002678,0.000431,0.582235
4606000,0.0324,0.013523,0.002678,0.000431,0.613027
4607000,0.0324,0.013523,0.002678,0.000431,0.634887
4608000,0.0324,0.013523,0.002678,0.000431,0.584938
4609000,0.0324,0.013523,0.002678,0.000431,0.487859
4610000,0.0324,0.013523,0.002678,0.000431,0.620901
4611000,0.0324,0.013523,0.002678,0.000431,0.762875
4612000,0.0324,0.013523,0.002678,0.000431,0.590109
4613000,0.0324,0.013523,0.002678,0.000431,0.691653
4614000,0.0324,0.013523,0.002678,0.000431,0.678255
4615000,0.0324,0.013523,0.002678,0.000431,0.659451
4616000,0.0324,0.013523,0.002678,0.000431,0.663447
4617000,0.0324,0.013523,0.002678,0.000431,0.670146
4618000,0.0324,0.013523,0.002678,0.000431,0.716099
4619000,0.0324,0.013523,0.002678,0.000431,0.749007
4620000,0.0324,0.013523,0.002678,0.000431,0.834333
4621000,0.0324,0.013523,0.002678,0.000431,0.943869
4622000,0.0324,0.013523,0.002678,0.000431,1.065746
4623000,0.0324,0.013523,0.002678,0.000431,0.778272
4624000,0.0324,0.013523,0.002678,0.000431,0.839504
4625000,0.0324,0.013523,0.002678,0.000431,0.951978
4626000,0.0324,0.013523,0.002678,0.000431,1.081142
4627000,0.0324,0.013523,0.002678,0.000431,1.063865
4628000,0.0324,0.013523,0.002678,0.000431,0.945514
4629000,0.0324,0.013523,0.002678,0.000431,0.914604
4630000,0.0324,0.013523,0.002678,0.000431,0.953976
4631000,0.0324,0.013523,0.002678,0.000431,0.961381
4632000,0.0324,0.013523,0.002678,0.000431,0.796488
4633000,0.0324,0.013523,0.002678,0.000431,0.680841
4634000,0.0324,0.013523,0.002678,0.000431,0.698940
4635000,0.0324,0.013523,0.002678,0.000431,0.682956
4636000,0.0324,0.013523,0.002678,0.000431,0.664974
4637000,0.0324,0.013523,0.002678,0.000431,0.578121
4638000,0.0324,0.013523,0.002678,0.000431,0.733728
4639000,0.0324,0.013523,0.002678,0.000431,0.766401
4640000,0.0324,0.013523,0.002678,0.000431,0.871824
4641000,0.0324,0.013523,0.002678,0.000431,0.723856
4642000,0.0324,0.013523,0.002678,0.000431,0.778624
4643000,0.0324,0.013523,0.002678,0.000431,0.921656
4644000,0.0324,0.013523,0.002678,0.000431,0.760290
4645000,0.0324,0.013523,0.002678,0.000431,0.721506
4646000,0.0324,0.013523,0.002678,0.000431,0.644760
4647000,0.0324,0.013523,0.002678,0.000431,0.612087
4648000,0.0324,0.013523,0.002678,0.000431,0.611382
4649000,0.0324,0.013523,0.002678,0.000431,0.602802
4650000,0.0324,0.013523,0.002678,0.000431,0.634887
4651000,0.0324,0.013523,0.002678,0.000431,0.769222
4652000,0.0324,0.013523,0.002678,0.000431,0.762758
4653000,0.0324,0.013523,0.002678,0.000431,0.770632
4654000,0.0324,0.013523,0.002678,0.000431,0.715982
4655000,0.0324,0.013523,0.002678,0.000431,0.787674
4656000,0.0324,0.013523,0.002678,0.000431,0.714219
4657000,0.0324,0.013523,0.002678,0.000431,0.858896
4658000,0.0324,0.013523,0.002678,0.000431,0.701056
4659000,0.0324,0.013523,0.002678,0.000431,0.773453
4660000,0.0324,0.013523,0.002678,0.000431,0.879934
4661000,0.0324,0.013523,0.002678,0.000431,0.650871
4662000,0.0324,0.013523,0.002678,0.000431,0.733611
4663000,0.0324,0.013523,0.002678,0.000431,0.729968
4664000,0.0324,0.013523,0.002678,0.000431,0.838446
4665000,0.0324,0.013523,0.002678,0.000431,0.785911
4666000,0.0324,0.013523,0.002678,0.000431,0.845145
4667000,0.0324,0.013523,0.002678,0.000431,0.866770
4668000,0.0324,0.013523,0.002678,0.000431,0.859601
4669000,0.0324,0.013523,0.002678,0.000431,0.788497
4670000,0.0324,0.013523,0.002678,0.000431,0.738900
4671000,0.0324,0.013523,0.002678,0.000431,0.859013
4672000,0.0324,0.013523,0.002678,0.000431,0.894154
4673000,0.0324,0.013523,0.002678,0.000431,0.716569
4674000,0.0324,0.013523,0.002678,0.000431,0.809182
4675000,0.0324,0.013523,0.002678,0.000431,0.859954
4676000,0.0324,0.013523,0.002678,0.000431,0.846203
4677000,0.0324,0.013523,0.002678,0.000431,0.882402
4678000,0.0324,0.013523,0.002678,0.000431,0.956562
4679000,0.0324,0.013523,0.002678,0.000431,0.785323
4680000,0.0324,0.013523,0.002678,0.000431,0.702113
4681000,0.0324,0.013523,0.002678,0.000431,0.558259
4682000,0.0324,0.013523,0.002678,0.000431,0.607503
4683000,0.0324,0.013523,0.002678,0.000431,0.719508
4684000,0.0324,0.013523,0.002678,0.000431,0.768752
4685000,0.0324,0.013523,0.002678,0.000431,0.752298
4686000,0.0324,0.013523,0.002678,0.000431,0.745834
4687000,0.0324,0.013523,0.002678,0.000431,0.638648
4688000,0.0324,0.013523,0.002678,0.000431,0.690243
4689000,0.0324,0.013523,0.002678,0.000431,0.676610
4690000,0.0324,0.013523,0.002678,0.000431,0.696942
4691000,0.0324,0.013523,0.002678,0.000431,0.758527
4692000,0.0324,0.013523,0.002678,0.000431,0.816468
4693000,0.0324,0.013523,0.002678,0.000431,0.858778
4694000,0.0324,0.013523,0.002678,0.000431,0.773100
4695000,0.0324,0.013523,0.002678,0.000431,0.866300
4696000,0.0324,0.013523,0.002678,0.000431,0.768987
4697000,0.0324,0.013523,0.002678,0.000431,0.653222
4698000,0.0324,0.013523,0.002678,0.000431,0.823990
4699000,0.0324,0.013523,0.002678,0.000431,0.684837
4700000,0.0324,0.013523,0.002678,0.000431,0.827986
4701000,0.0324,0.013523,0.002678,0.000431,0.841032
4702000,0.0324,0.013523,0.002678,0.000431,0.790024
4703000,0.0324,0.013523,0.002678,0.000431,0.974779
4704000,0.0324,0.013523,0.002678,0.000431,0.972428
4705000,0.0324,0.013523,0.002678,0.000431,0.995111
4706000,0.0324,0.013523,0.002678,0.000431,0.875820
4707000,0.0324,0.013523,0.002678,0.000431,0.812237
4708000,0.0324,0.013523,0.002678,0.000431,0.664034
4709000,0.0324,0.013523,0.002678,0.000431,0.588699
4710000,0.0324,0.013523,0.002678,0.000431,0.683191
4711000,0.0324,0.013523,0.002678,0.000431,0.782150
4712000,0.0324,0.013523,0.002678,0.000431,0.921538
4713000,0.0324,0.013523,0.002678,0.000431,0.890276
4714000,0.0324,0.013523,0.002678,0.000431,0.892509
4715000,0.0324,0.013523,0.002678,0.000431,0.767929
4716000,0.0324,0.013523,0.002678,0.000431,1.008744
4717000,0.0324,0.013523,0.002678,0.000431,1.079849
4718000,0.0324,0.013523,0.002678,0.000431,0.791200
4719000,0.0324,0.013523,0.002678,0.000431,0.986414
4720000,0.0324,0.013523,0.002678,0.000431,1.243213
4721000,0.0324,0.013523,0.002678,0.000431,1.205957
4722000,0.0324,0.013523,0.002678,0.000431,1.303505
4723000,0.0324,0.013523,0.002678,0.000431,1.249912
4724000,0.0324,0.013523,0.002678,0.000431,1.396470
4725000,0.0324,0.013523,0.002678,0.000431,1.165292
4726000,0.0324,0.013523,0.002678,0.000431,1.078791
4727000,0.0324,0.013523,0.002678,0.000431,0.970783
4728000,0.0324,0.013523,0.002678,0.000431,0.975014
4729000,0.0324,0.013523,0.002678,0.000431,0.846555
4730000,0.0324,0.013523,0.002678,0.000431,0.998284
4731000,0.0324,0.013523,0.002678,0.000431,1.022143
4732000,0.0324,0.013523,0.002678,0.000431,1.112874
4733000,0.0324,0.013523,0.002678,0.000431,1.299392
4734000,0.0324,0.013523,0.002678,0.000431,1.356863
4735000,0.0324,0.013523,0.002678,0.000431,1.352867
4736000,0.0324,0.013523,0.002678,0.000431,1.286463
4737000,0.0324,0.013523,0.002678,0.000431,1.097713
4738000,0.0324,0.013523,0.002678,0.000431,1.062455
4739000,0.0324,0.013523,0.002678,0.000431,1.099006
4740000,0.0324,0.013523,0.002678,0.000431,1.274241
4741000,0.0324,0.013523,0.002678,0.000431,1.323485
4742000,0.0324,0.013523,0.002678,0.000431,1.443951
4743000,0.0324,0.013523,0.002678,0.000431,1.343230
4744000,0.0324,0.013523,0.002678,0.000431,1.351809
4745000,0.0324,0.013523,0.002678,0.000431,1.449240
4746000,0.0324,0.013523,0.002678,0.000431,1.188092
4747000,0.0324,0.013523,0.002678,0.000431,1.379898
4748000,0.0324,0.013523,0.002678,0.000431,1.272008
4749000,0.0324,0.013523,0.002678,0.000431,1.057636
4750000,0.0324,0.013523,0.002678,0.000431,1.340409
4751000,0.0324,0.013523,0.002678,0.000431,1.355217
4752000,0.0324,0.013523,0.002678,0.000431,1.285641
4753000,0.0324,0.013523,0.002678,0.000431,1.337236
4754000,0.0324,0.013523,0.002678,0.000431,1.207485
4755000,0.0324,0.013523,0.002678,0.000431,1.112404
4756000,0.0324,0.013523,0.002678,0.000431,1.122629
4757000,0.0324,0.013523,0.002678,0.000431,1.176105
4758000,0.0324,0.013523,0.002678,0.000431,1.345110
4759000,0.0324,0.013523,0.002678,0.000431,1.448770
4760000,0.0324,0.013523,0.002678,0.000431,1.340762
4761000,0.0324,0.013523,0.002678,0.000431,1.173636
4762000,0.0324,0.013523,0.002678,0.000431,1.219237
4763000,0.0324,0.013523,0.002678,0.000431,1.275181
4764000,0.0324,0.013523,0.002678,0.000431,1.442658
4765000,0.0324,0.013523,0.002678,0.000431,1.249560
4766000,0.0324,0.013523,0.002678,0.000431,1.226642
4767000,0.0324,0.013523,0.002678,0.000431,1.144842
4768000,0.0324,0.013523,0.002678,0.000431,1.224174
4769000,0.0324,0.013523,0.002678,0.000431,1.214184
4770000,0.0324,0.013523,0.002678,0.000431,1.094657
4771000,0.0324,0.013523,0.002678,0.000431,1.057519
4772000,0.0324,0.013523,0.002678,0.000431,1.115930
4773000,0.0324,0.013523,0.002678,0.000431,0.664387
4774000,0.0324,0.013523,0.002678,0.000431,0.178408
4775000,0.0324,0.013523,0.002678,0.000431,0.085208
4776000,0.0324,0.013523,0.002678,0.000431,0.081447
4777000,0.0324,0.013523,0.002678,0.000431,0.068284
4778000,0.0324,0.013523,0.002678,0.000431,0.066168
4779000,0.0324,0.013523,0.002678,0.000431,0.063348
4780000,0.0324,0.013523,0.002678,0.000431,0.069577
4781000,0.0324,0.013523,0.002678,0.000431,0.064405
4782000,0.0324,0.013523,0.002678,0.000431,0.060645
4783000,0.0324,0.013523,0.002678,0.000431,0.066874
4784000,0.0324,0.013523,0.002678,0.000431,0.063465
4785000,0.0324,0.013523,0.002678,0.000431,0.061115
4786000,0.0324,0.013523,0.002678,0.000431,0.062525
4787000,0.0324,0.013523,0.002678,0.000431,0.060997
4788000,0.0324,0.013523,0.002678,0.000431,0.060880
4789000,0.0324,0.013523,0.002678,0.000431,0.062407
4790000,0.0324,0.013523,0.002678,0.000431,0.059469
4791000,0.0324,0.013523,0.002678,0.000431,0.060527
4792000,0.0324,0.013523,0.002678,0.000431,0.062055
4793000,0.0324,0.013523,0.002678,0.000431,0.063465
4794000,0.0324,0.013523,0.002678,0.000431,0.060174
4795000,0.0324,0.013523,0.002678,0.000431,0.061115
4796000,0.0324,0.013523,0.002678,0.000431,0.064876
4797000,0.0324,0.013523,0.002678,0.000431,0.058999
4798000,0.0324,0.013523,0.002678,0.000431,0.061820
4799000,0.0324,0.013523,0.002678,0.000431,0.060174
4800000,0.0324,0.013523,0.002678,0.000431,0.063230
4801000,0.0324,0.013523,0.002678,0.000431,0.057941
4802000,0.0324,0.013523,0.002678,0.000431,0.060645
4803000,0.0324,0.013523,0.002678,0.000431,0.057589
4804000,0.0324,0.013523,0.002678,0.000431,0.059469
4805000,0.0324,0.013523,0.002678,0.000431,0.061702
4806000,0.0324,0.013523,0.002678,0.000431,0.061937
4807000,0.0324,0.013523,0.002678,0.000431,0.058764
4808000,0.0324,0.013523,0.002678,0.000431,0.058882
4809000,0.0324,0.013523,0.002678,0.000431,0.059352
4810000,0.0324,0.013523,0.002678,0.000431,0.061115
4811000,0.0324,0.013523,0.002678,0.000431,0.062643
4812000,0.0324,0.013523,0.002678,0.000431,0.060527
4813000,0.0324,0.013523,0.002678,0.000431,0.059352
4814000,0.0324,0.013523,0.002678,0.000431,0.060645
4815000,0.0324,0.013523,0.002678,0.000431,0.057941
4816000,0.0324,0.013523,0.002678,0.000431,0.062995
4817000,0.0324,0.013523,0.002678,0.000431,0.061115
4818000,0.0324,0.013523,0.002678,0.000431,0.060292
4819000,0.0324,0.013523,0.002678,0.000431,0.060292
4820000,0.0324,0.013523,0.002678,0.000431,0.058999
4821000,0.0324,0.013523,0.002678,0.000431,0.061467
4822000,0.0324,0.013523,0.002678,0.000431,0.060292
4823000,0.0324,0.013523,0.002678,0.000431,0.059587
4824000,0.0324,0.013523,0.002678,0.000431,0.060292
4825000,0.0324,0.013523,0.002678,0.000431,0.061350
4826000,0.0324,0.013523,0.002678,0.000431,0.061585
4827000,0.0324,0.013523,0.002678,0.000431,0.063465
4828000,0.0324,0.013523,0.002678,0.000431,0.059939
4829000,0.0324,0.013523,0.002678,0.000431,0.057706
4830000,0.0324,0.013523,0.002678,0.000431,0.061232
4831000,0.0324,0.013523,0.002678,0.000431,0.060409
4832000,0.0324,0.013523,0.002678,0.000431,0.059117
4833000,0.0324,0.013523,0.002678,0.000431,0.057001
4834000,0.0324,0.013523,0.002678,0.000431,0.058059
4835000,0.0324,0.013523,0.002678,0.000431,0.058294
4836000,0.0324,0.013523,0.002678,0.000431,0.057824
4837000,0.0324,0.013523,0.002678,0.000431,0.057471
4838000,0.0324,0.013523,0.002678,0.000431,0.058882
4839000,0.0324,0.013523,0.002678,0.000431,0.056178
4840000,0.0324,0.013523,0.002678,0.000431,0.062760
4841000,0.0324,0.013523,0.002678,0.000431,0.058647
4842000,0.0324,0.013523,0.002678,0.000431,0.057354
4843000,0.0324,0.013523,0.002678,0.000431,0.059704
4844000,0.0324,0.013523,0.002678,0.000431,0.061702
4845000,0.0324,0.013523,0.002678,0.000431,0.058294
4846000,0.0324,0.013523,0.002678,0.000431,0.059352
4847000,0.0324,0.013523,0.002678,0.000431,0.054180
4848000,0.0324,0.013523,0.002678,0.000431,0.059587
4849000,0.0324,0.013523,0.002678,0.000431,0.060409
4850000,0.0324,0.013523,0.002678,0.000431,0.056649
4851000,0.0324,0.013523,0.002678,0.000431,0.057824
4852000,0.0324,0.013523,0.002678,0.000431,0.060292
4853000,0.0324,0.013523,0.002678,0.000431,0.055591
4854000,0.0324,0.013523,0.002678,0.000431,0.057589
4855000,0.0324,0.013523,0.002678,0.000431,0.055826
4856000,0.0324,0.013523,0.002678,0.000431,0.057001
4857000,0.0324,0.013523,0.002678,0.000431,0.060174
4858000,0.0324,0.013523,0.002678,0.000431,0.056061
4859000,0.0324,0.013523,0.002678,0.000431,0.055708
4860000,0.0324,0.013523,0.002678,0.000431,0.059352
4861000,0.0324,0.013523,0.002678,0.000431,0.056414
4862000,0.0324,0.013523,0.002678,0.000431,0.056296
4863000,0.0324,0.013523,0.002678,0.000431,0.057941
4864000,0.0324,0.013523,0.002678,0.000431,0.058412
4865000,0.0324,0.013523,0.002678,0.000431,0.056414
4866000,0.0324,0.013523,0.002678,0.000431,0.056649
4867000,0.0324,0.013523,0.002678,0.000431,0.057001
4868000,0.0324,0.013523,0.002678,0.000431,0.056649
4869000,0.0324,0.013523,0.002678,0.000431,0.058412
4870000,0.0324,0.013523,0.002678,0.000431,0.057589
4871000,0.0324,0.013523,0.002678,0.000431,0.055826
4872000,0.0324,0.013523,0.002678,0.000431,0.055473
4873000,0.0324,0.013523,0.002678,0.000431,0.060174
4874000,0.0324,0.013523,0.002678,0.000431,0.055708
4875000,0.0324,0.013523,0.002678,0.000431,0.055473
4876000,0.0324,0.013523,0.002678,0.000431,0.059469
4877000,0.0324,0.013523,0.002678,0.000431,0.053828
4878000,0.0324,0.013523,0.002678,0.000431,0.056296
4879000,0.0324,0.013523,0.002678,0.000431,0.057236
4880000,0.0324,0.013523,0.002678,0.000431,0.054533
4881000,0.0324,0.013523,0.002678,0.000431,0.054651
4882000,0.0324,0.013523,0.002678,0.000431,0.059822
4883000,0.0324,0.013523,0.002678,0.000431,0.055003
4884000,0.0324,0.013523,0.002678,0.000431,0.057236
4885000,0.0324,0.013523,0.002678,0.000431,0.058529
4886000,0.0324,0.013523,0.002678,0.000431,0.058764
4887000,0.0324,0.013523,0.002678,0.000431,0.056178
4888000,0.0324,0.013523,0.002678,0.000431,0.053358
4889000,0.0324,0.013523,0.002678,0.000431,0.057589
4890000,0.0324,0.013523,0.002678,0.000431,0.059587
4891000,0.0324,0.013523,0.002678,0.000431,0.055473
4892000,0.0324,0.013523,0.002678,0.000431,0.054298
4893000,0.0324,0.013523,0.002678,0.000431,0.057941
4894000,0.0324,0.013523,0.002678,0.000431,0.057119
4895000,0.0324,0.013523,0.002678,0.000431,0.059234
4896000,0.0324,0.013523,0.002678,0.000431,0.056766
4897000,0.0324,0.013523,0.002678,0.000431,0.056531
4898000,0.0324,0.013523,0.002678,0.000431,0.055591
4899000,0.0324,0.013523,0.002678,0.000431,0.059234
4900000,0.0324,0.013523,0.002678,0.000431,0.054298
4901000,0.0324,0.013523,0.002678,0.000431,0.055708
4902000,0.0324,0.013523,0.002678,0.000431,0.056649
4903000,0.0324,0.013523,0.002678,0.000431,0.058529
4904000,0.0324,0.013523,0.002678,0.000431,0.057236
4905000,0.0324,0.013523,0.002678,0.000431,0.054768
4906000,0.0324,0.013523,0.002678,0.000431,0.055003
4907000,0.0324,0.013523,0.002678,0.000431,0.055826
4908000,0.0324,0.013523,0.002678,0.000431,0.058647
4909000,0.0324,0.013523,0.002678,0.000431,0.058529
4910000,0.0324,0.013523,0.002678,0.000431,0.057706
4911000,0.0324,0.013523,0.002678,0.000431,0.056766
4912000,0.0324,0.013523,0.002678,0.000431,0.057001
4913000,0.0324,0.013523,0.002678,0.000431,0.054533
4914000,0.0324,0.013523,0.002678,0.000431,0.058529
4915000,0.0324,0.013523,0.002678,0.000431,0.054651
4916000,0.0324,0.013523,0.002678,0.000431,0.059234
4917000,0.0324,0.013523,0.002678,0.000431,0.056649
4918000,0.0324,0.013523,0.002678,0.000431,0.058412
4919000,0.0324,0.013523,0.002678,0.000431,0.057354
4920000,0.0324,0.013523,0.002678,0.000431,0.060645
4921000,0.0324,0.013523,0.002678,0.000431,0.056531
4922000,0.0324,0.013523,0.002678,0.000431,0.056296
4923000,0.0324,0.013523,0.002678,0.000431,0.057471
4924000,0.0324,0.013523,0.002678,0.000431,0.056649
4925000,0.0324,0.013523,0.002678,0.000431,0.056884
4926000,0.0324,0.013523,0.002678,0.000431,0.053593
4927000,0.0324,0.013523,0.002678,0.000431,0.054298
4928000,0.0324,0.013523,0.002678,0.000431,0.055003
4929000,0.0324,0.013523,0.002678,0.000431,0.057354
4930000,0.0324,0.013523,0.002678,0.000431,0.055238
4931000,0.0324,0.013523,0.002678,0.000431,0.054180
4932000,0.0324,0.013523,0.002678,0.000431,0.049362
4933000,0.0324,0.013523,0.002678,0.000431,0.057236
4934000,0.0324,0.013523,0.002678,0.000431,0.056766
4935000,0.0324,0.013523,0.002678,0.000431,0.050772
4936000,0.0324,0.013523,0.002678,0.000431,0.053475
4937000,0.0324,0.013523,0.002678,0.000431,0.050890
4938000,0.0324,0.013523,0.002678,0.000431,0.054416
4939000,0.0324,0.013523,0.002678,0.000431,0.054886
4940000,0.0324,0.013523,0.002678,0.000431,0.053593
4941000,0.0324,0.013523,0.002678,0.000431,0.053240
4942000,0.0324,0.013523,0.002678,0.000431,0.057706
4943000,0.0324,0.013523,0.002678,0.000431,0.051947
4944000,0.0324,0.013523,0.002678,0.000431,0.055003
4945000,0.0324,0.013523,0.002678,0.000431,0.051360
4946000,0.0324,0.013523,0.002678,0.000431,0.058529
4947000,0.0324,0.013523,0.002678,0.000431,0.052183
4948000,0.0324,0.013523,0.002678,0.000431,0.049597
4949000,0.0324,0.013523,0.002678,0.000431,0.057236
4950000,0.0324,0.013523,0.002678,0.000431,0.057706
4951000,0.0324,0.013523,0.002678,0.000431,0.052888
4952000,0.0324,0.013523,0.002678,0.000431,0.050067
4953000,0.0324,0.013523,0.002678,0.000431,0.054886
4954000,0.0324,0.013523,0.002678,0.000431,0.056531
4955000,0.0324,0.013523,0.002678,0.000431,0.053828
4956000,0.0324,0.013523,0.002678,0.000431,0.052653
4957000,0.0324,0.013523,0.002678,0.000431,0.054651
4958000,0.0324,0.013523,0.002678,0.000431,0.054298
4959000,0.0324,0.013523,0.002678,0.000431,0.054651
4960000,0.0324,0.013523,0.002678,0.000431,0.053123
4961000,0.0324,0.013523,0.002678,0.000431,0.055708
4962000,0.0324,0.013523,0.002678,0.000431,0.054651
4963000,0.0324,0.013523,0.002678,0.000431,0.054533
4964000,0.0324,0.013523,0.002678,0.000431,0.053593
4965000,0.0324,0.013523,0.002678,0.000431,0.052065
4966000,0.0324,0.013523,0.002678,0.000431,0.055591
4967000,0.0324,0.013523,0.002678,0.000431,0.054768
4968000,0.0324,0.013523,0.002678,0.000431,0.053945
4969000,0.0324,0.013523,0.002678,0.000431,0.054416
4970000,0.0324,0.013523,0.002678,0.000431,0.053005
4971000,0.0324,0.013523,0.002678,0.000431,0.056766
4972000,0.0324,0.013523,0.002678,0.000431,0.051595
4973000,0.0324,0.013523,0.002678,0.000431,0.053240
4974000,0.0324,0.013523,0.002678,0.000431,0.055826
4975000,0.0324,0.013523,0.002678,0.000431,0.054886
4976000,0.0324,0.013523,0.002678,0.000431,0.052770
4977000,0.0324,0.013523,0.002678,0.000431,0.055121
4978000,0.0324,0.013523,0.002678,0.000431,0.052653
4979000,0.0324,0.013523,0.002678,0.000431,0.053005
4980000,0.0324,0.013523,0.002678,0.000431,0.053945
4981000,0.0324,0.013523,0.002678,0.000431,0.053005
4982000,0.0324,0.013523,0.002678,0.000431,0.055356
4983000,0.0324,0.013523,0.002678,0.000431,0.055003
4984000,0.0324,0.013523,0.002678,0.000431,0.055591
4985000,0.0324,0.013523,0.002678,0.000431,0.053005
4986000,0.0324,0.013523,0.002678,0.000431,0.053710
4987000,0.0324,0.013523,0.002678,0.000431,0.056531
4988000,0.0324,0.013523,0.002678,0.000431,0.054533
4989000,0.0324,0.013523,0.002678,0.000431,0.051595
4990000,0.0324,0.013523,0.002678,0.000431,0.055473
4991000,0.0324,0.013523,0.002678,0.000431,0.053005
4992000,0.0324,0.013523,0.002678,0.000431,0.053945
4993000,0.0324,0.013523,0.002678,0.000431,0.055356
4994000,0.0324,0.013523,0.002678,0.000431,0.049949
4995000,0.0324,0.013523,0.002678,0.000431,0.055356
4996000,0.0324,0.013523,0.002678,0.000431,0.053593
4997000,0.0324,0.013523,0.002678,0.000431,0.057236
4998000,0.0324,0.013523,0.002678,0.000431,0.054180
4999000,0.0324,0.013523,0.002678,0.000431,0.052418
