Cycle,Area(mm^2),PeakDynamic(W),SubthresholdLeakage(W),GateLeakage(W),RunTimeDynamic(W)
14000000,0.0324,0.013523,0.002678,0.000431,0.006582
14001000,0.0324,0.013523,0.002678,0.000431,0.006347
14002000,0.0324,0.013523,0.002678,0.000431,0.006464
14003000,0.0324,0.013523,0.002678,0.000431,0.006817
14004000,0.0324,0.013523,0.002678,0.000431,0.005641
14005000,0.0324,0.013523,0.002678,0.000431,0.006229
14006000,0.0324,0.013523,0.002678,0.000431,0.006229
14007000,0.0324,0.013523,0.002678,0.000431,0.006817
14008000,0.0324,0.013523,0.002678,0.000431,0.006229
14009000,0.0324,0.013523,0.002678,0.000431,0.006464
14010000,0.0324,0.013523,0.002678,0.000431,0.006934
14011000,0.0324,0.013523,0.002678,0.000431,0.005759
14012000,0.0324,0.013523,0.002678,0.000431,0.006699
14013000,0.0324,0.013523,0.002678,0.000431,0.006817
14014000,0.0324,0.013523,0.002678,0.000431,0.006817
14015000,0.0324,0.013523,0.002678,0.000431,0.006229
14016000,0.0324,0.013523,0.002678,0.000431,0.006699
14017000,0.0324,0.013523,0.002678,0.000431,0.006229
14018000,0.0324,0.013523,0.002678,0.000431,0.006111
14019000,0.0324,0.013523,0.002678,0.000431,0.006934
14020000,0.0324,0.013523,0.002678,0.000431,0.006229
14021000,0.0324,0.013523,0.002678,0.000431,0.006582
14022000,0.0324,0.013523,0.002678,0.000431,0.006347
14023000,0.0324,0.013523,0.002678,0.000431,0.006582
14024000,0.0324,0.013523,0.002678,0.000431,0.006111
14025000,0.0324,0.013523,0.002678,0.000431,0.006229
14026000,0.0324,0.013523,0.002678,0.000431,0.006699
14027000,0.0324,0.013523,0.002678,0.000431,0.005994
14028000,0.0324,0.013523,0.002678,0.000431,0.006111
14029000,0.0324,0.013523,0.002678,0.000431,0.006582
14030000,0.0324,0.013523,0.002678,0.000431,0.005994
14031000,0.0324,0.013523,0.002678,0.000431,0.005641
14032000,0.0324,0.013523,0.002678,0.000431,0.006699
14033000,0.0324,0.013523,0.002678,0.000431,0.006347
14034000,0.0324,0.013523,0.002678,0.000431,0.006229
14035000,0.0324,0.013523,0.002678,0.000431,0.006699
14036000,0.0324,0.013523,0.002678,0.000431,0.006817
14037000,0.0324,0.013523,0.002678,0.000431,0.006464
14038000,0.0324,0.013523,0.002678,0.000431,0.006229
14039000,0.0324,0.013523,0.002678,0.000431,0.006934
14040000,0.0324,0.013523,0.002678,0.000431,0.006699
14041000,0.0324,0.013523,0.002678,0.000431,0.006111
14042000,0.0324,0.013523,0.002678,0.000431,0.007169
14043000,0.0324,0.013523,0.002678,0.000431,0.006934
14044000,0.0324,0.013523,0.002678,0.000431,0.006111
14045000,0.0324,0.013523,0.002678,0.000431,0.005994
14046000,0.0324,0.013523,0.002678,0.000431,0.006817
14047000,0.0324,0.013523,0.002678,0.000431,0.007287
14048000,0.0324,0.013523,0.002678,0.000431,0.006817
14049000,0.0324,0.013523,0.002678,0.000431,0.006229
14050000,0.0324,0.013523,0.002678,0.000431,0.006817
14051000,0.0324,0.013523,0.002678,0.000431,0.005994
14052000,0.0324,0.013523,0.002678,0.000431,0.005994
14053000,0.0324,0.013523,0.002678,0.000431,0.006817
14054000,0.0324,0.013523,0.002678,0.000431,0.006582
14055000,0.0324,0.013523,0.002678,0.000431,0.006464
14056000,0.0324,0.013523,0.002678,0.000431,0.006582
14057000,0.0324,0.013523,0.002678,0.000431,0.006582
14058000,0.0324,0.013523,0.002678,0.000431,0.006699
14059000,0.0324,0.013523,0.002678,0.000431,0.006699
14060000,0.0324,0.013523,0.002678,0.000431,0.006817
14061000,0.0324,0.013523,0.002678,0.000431,0.006699
14062000,0.0324,0.013523,0.002678,0.000431,0.006699
14063000,0.0324,0.013523,0.002678,0.000431,0.006464
14064000,0.0324,0.013523,0.002678,0.000431,0.007522
14065000,0.0324,0.013523,0.002678,0.000431,0.006464
14066000,0.0324,0.013523,0.002678,0.000431,0.005406
14067000,0.0324,0.013523,0.002678,0.000431,0.006699
14068000,0.0324,0.013523,0.002678,0.000431,0.006347
14069000,0.0324,0.013523,0.002678,0.000431,0.006582
14070000,0.0324,0.013523,0.002678,0.000431,0.006699
14071000,0.0324,0.013523,0.002678,0.000431,0.007052
14072000,0.0324,0.013523,0.002678,0.000431,0.006229
14073000,0.0324,0.013523,0.002678,0.000431,0.006347
14074000,0.0324,0.013523,0.002678,0.000431,0.006582
14075000,0.0324,0.013523,0.002678,0.000431,0.006699
14076000,0.0324,0.013523,0.002678,0.000431,0.006464
14077000,0.0324,0.013523,0.002678,0.000431,0.006347
14078000,0.0324,0.013523,0.002678,0.000431,0.006817
14079000,0.0324,0.013523,0.002678,0.000431,0.006229
14080000,0.0324,0.013523,0.002678,0.000431,0.006229
14081000,0.0324,0.013523,0.002678,0.000431,0.006699
14082000,0.0324,0.013523,0.002678,0.000431,0.006582
14083000,0.0324,0.013523,0.002678,0.000431,0.005994
14084000,0.0324,0.013523,0.002678,0.000431,0.006582
14085000,0.0324,0.013523,0.002678,0.000431,0.006817
14086000,0.0324,0.013523,0.002678,0.000431,0.006347
14087000,0.0324,0.013523,0.002678,0.000431,0.006582
14088000,0.0324,0.013523,0.002678,0.000431,0.006111
14089000,0.0324,0.013523,0.002678,0.000431,0.006229
14090000,0.0324,0.013523,0.002678,0.000431,0.006229
14091000,0.0324,0.013523,0.002678,0.000431,0.006229
14092000,0.0324,0.013523,0.002678,0.000431,0.006817
14093000,0.0324,0.013523,0.002678,0.000431,0.006229
14094000,0.0324,0.013523,0.002678,0.000431,0.006934
14095000,0.0324,0.013523,0.002678,0.000431,0.006817
14096000,0.0324,0.013523,0.002678,0.000431,0.006582
14097000,0.0324,0.013523,0.002678,0.000431,0.005876
14098000,0.0324,0.013523,0.002678,0.000431,0.006817
14099000,0.0324,0.013523,0.002678,0.000431,0.006582
14100000,0.0324,0.013523,0.002678,0.000431,0.006464
14101000,0.0324,0.013523,0.002678,0.000431,0.005994
14102000,0.0324,0.013523,0.002678,0.000431,0.006934
14103000,0.0324,0.013523,0.002678,0.000431,0.005994
14104000,0.0324,0.013523,0.002678,0.000431,0.006934
14105000,0.0324,0.013523,0.002678,0.000431,0.006229
14106000,0.0324,0.013523,0.002678,0.000431,0.006464
14107000,0.0324,0.013523,0.002678,0.000431,0.006229
14108000,0.0324,0.013523,0.002678,0.000431,0.006347
14109000,0.0324,0.013523,0.002678,0.000431,0.006699
14110000,0.0324,0.013523,0.002678,0.000431,0.006817
14111000,0.0324,0.013523,0.002678,0.000431,0.006229
14112000,0.0324,0.013523,0.002678,0.000431,0.006582
14113000,0.0324,0.013523,0.002678,0.000431,0.006464
14114000,0.0324,0.013523,0.002678,0.000431,0.006111
14115000,0.0324,0.013523,0.002678,0.000431,0.005994
14116000,0.0324,0.013523,0.002678,0.000431,0.007169
14117000,0.0324,0.013523,0.002678,0.000431,0.007169
14118000,0.0324,0.013523,0.002678,0.000431,0.006582
14119000,0.0324,0.013523,0.002678,0.000431,0.006817
14120000,0.0324,0.013523,0.002678,0.000431,0.006464
14121000,0.0324,0.013523,0.002678,0.000431,0.006229
14122000,0.0324,0.013523,0.002678,0.000431,0.006699
14123000,0.0324,0.013523,0.002678,0.000431,0.006817
14124000,0.0324,0.013523,0.002678,0.000431,0.005759
14125000,0.0324,0.013523,0.002678,0.000431,0.006464
14126000,0.0324,0.013523,0.002678,0.000431,0.006347
14127000,0.0324,0.013523,0.002678,0.000431,0.006111
14128000,0.0324,0.013523,0.002678,0.000431,0.005759
14129000,0.0324,0.013523,0.002678,0.000431,0.006229
14130000,0.0324,0.013523,0.002678,0.000431,0.006347
14131000,0.0324,0.013523,0.002678,0.000431,0.005994
14132000,0.0324,0.013523,0.002678,0.000431,0.006111
14133000,0.0324,0.013523,0.002678,0.000431,0.006699
14134000,0.0324,0.013523,0.002678,0.000431,0.006817
14135000,0.0324,0.013523,0.002678,0.000431,0.006347
14136000,0.0324,0.013523,0.002678,0.000431,0.006229
14137000,0.0324,0.013523,0.002678,0.000431,0.005641
14138000,0.0324,0.013523,0.002678,0.000431,0.006699
14139000,0.0324,0.013523,0.002678,0.000431,0.005994
14140000,0.0324,0.013523,0.002678,0.000431,0.006229
14141000,0.0324,0.013523,0.002678,0.000431,0.006111
14142000,0.0324,0.013523,0.002678,0.000431,0.006699
14143000,0.0324,0.013523,0.002678,0.000431,0.006464
14144000,0.0324,0.013523,0.002678,0.000431,0.006111
14145000,0.0324,0.013523,0.002678,0.000431,0.006347
14146000,0.0324,0.013523,0.002678,0.000431,0.006699
14147000,0.0324,0.013523,0.002678,0.000431,0.007052
14148000,0.0324,0.013523,0.002678,0.000431,0.006229
14149000,0.0324,0.013523,0.002678,0.000431,0.006699
14150000,0.0324,0.013523,0.002678,0.000431,0.006111
14151000,0.0324,0.013523,0.002678,0.000431,0.006111
14152000,0.0324,0.013523,0.002678,0.000431,0.006699
14153000,0.0324,0.013523,0.002678,0.000431,0.006347
14154000,0.0324,0.013523,0.002678,0.000431,0.006347
14155000,0.0324,0.013523,0.002678,0.000431,0.006582
14156000,0.0324,0.013523,0.002678,0.000431,0.006347
14157000,0.0324,0.013523,0.002678,0.000431,0.006699
14158000,0.0324,0.013523,0.002678,0.000431,0.006347
14159000,0.0324,0.013523,0.002678,0.000431,0.006817
14160000,0.0324,0.013523,0.002678,0.000431,0.005641
14161000,0.0324,0.013523,0.002678,0.000431,0.007287
14162000,0.0324,0.013523,0.002678,0.000431,0.006582
14163000,0.0324,0.013523,0.002678,0.000431,0.006111
14164000,0.0324,0.013523,0.002678,0.000431,0.006699
14165000,0.0324,0.013523,0.002678,0.000431,0.006934
14166000,0.0324,0.013523,0.002678,0.000431,0.006229
14167000,0.0324,0.013523,0.002678,0.000431,0.005994
14168000,0.0324,0.013523,0.002678,0.000431,0.006934
14169000,0.0324,0.013523,0.002678,0.000431,0.006111
14170000,0.0324,0.013523,0.002678,0.000431,0.006347
14171000,0.0324,0.013523,0.002678,0.000431,0.006699
14172000,0.0324,0.013523,0.002678,0.000431,0.006347
14173000,0.0324,0.013523,0.002678,0.000431,0.007052
14174000,0.0324,0.013523,0.002678,0.000431,0.007052
14175000,0.0324,0.013523,0.002678,0.000431,0.006111
14176000,0.0324,0.013523,0.002678,0.000431,0.006817
14177000,0.0324,0.013523,0.002678,0.000431,0.006347
14178000,0.0324,0.013523,0.002678,0.000431,0.005759
14179000,0.0324,0.013523,0.002678,0.000431,0.006817
14180000,0.0324,0.013523,0.002678,0.000431,0.006229
14181000,0.0324,0.013523,0.002678,0.000431,0.006347
14182000,0.0324,0.013523,0.002678,0.000431,0.006464
14183000,0.0324,0.013523,0.002678,0.000431,0.006934
14184000,0.0324,0.013523,0.002678,0.000431,0.006464
14185000,0.0324,0.013523,0.002678,0.000431,0.006464
14186000,0.0324,0.013523,0.002678,0.000431,0.005759
14187000,0.0324,0.013523,0.002678,0.000431,0.006934
14188000,0.0324,0.013523,0.002678,0.000431,0.007052
14189000,0.0324,0.013523,0.002678,0.000431,0.006582
14190000,0.0324,0.013523,0.002678,0.000431,0.006934
14191000,0.0324,0.013523,0.002678,0.000431,0.006111
14192000,0.0324,0.013523,0.002678,0.000431,0.007169
14193000,0.0324,0.013523,0.002678,0.000431,0.006111
14194000,0.0324,0.013523,0.002678,0.000431,0.006817
14195000,0.0324,0.013523,0.002678,0.000431,0.006464
14196000,0.0324,0.013523,0.002678,0.000431,0.006111
14197000,0.0324,0.013523,0.002678,0.000431,0.005759
14198000,0.0324,0.013523,0.002678,0.000431,0.007169
14199000,0.0324,0.013523,0.002678,0.000431,0.006699
14200000,0.0324,0.013523,0.002678,0.000431,0.006229
14201000,0.0324,0.013523,0.002678,0.000431,0.006582
14202000,0.0324,0.013523,0.002678,0.000431,0.007052
14203000,0.0324,0.013523,0.002678,0.000431,0.006582
14204000,0.0324,0.013523,0.002678,0.000431,0.006817
14205000,0.0324,0.013523,0.002678,0.000431,0.006582
14206000,0.0324,0.013523,0.002678,0.000431,0.006111
14207000,0.0324,0.013523,0.002678,0.000431,0.006111
14208000,0.0324,0.013523,0.002678,0.000431,0.006934
14209000,0.0324,0.013523,0.002678,0.000431,0.006582
14210000,0.0324,0.013523,0.002678,0.000431,0.006699
14211000,0.0324,0.013523,0.002678,0.000431,0.006582
14212000,0.0324,0.013523,0.002678,0.000431,0.006229
14213000,0.0324,0.013523,0.002678,0.000431,0.006111
14214000,0.0324,0.013523,0.002678,0.000431,0.006464
14215000,0.0324,0.013523,0.002678,0.000431,0.006464
14216000,0.0324,0.013523,0.002678,0.000431,0.006582
14217000,0.0324,0.013523,0.002678,0.000431,0.006934
14218000,0.0324,0.013523,0.002678,0.000431,0.006817
14219000,0.0324,0.013523,0.002678,0.000431,0.006111
14220000,0.0324,0.013523,0.002678,0.000431,0.006699
14221000,0.0324,0.013523,0.002678,0.000431,0.007052
14222000,0.0324,0.013523,0.002678,0.000431,0.006229
14223000,0.0324,0.013523,0.002678,0.000431,0.006582
14224000,0.0324,0.013523,0.002678,0.000431,0.006817
14225000,0.0324,0.013523,0.002678,0.000431,0.007287
14226000,0.0324,0.013523,0.002678,0.000431,0.006111
14227000,0.0324,0.013523,0.002678,0.000431,0.006817
14228000,0.0324,0.013523,0.002678,0.000431,0.005876
14229000,0.0324,0.013523,0.002678,0.000431,0.007169
14230000,0.0324,0.013523,0.002678,0.000431,0.006111
14231000,0.0324,0.013523,0.002678,0.000431,0.006464
14232000,0.0324,0.013523,0.002678,0.000431,0.005876
14233000,0.0324,0.013523,0.002678,0.000431,0.006817
14234000,0.0324,0.013523,0.002678,0.000431,0.006347
14235000,0.0324,0.013523,0.002678,0.000431,0.006817
14236000,0.0324,0.013523,0.002678,0.000431,0.006934
14237000,0.0324,0.013523,0.002678,0.000431,0.006934
14238000,0.0324,0.013523,0.002678,0.000431,0.005994
14239000,0.0324,0.013523,0.002678,0.000431,0.007287
14240000,0.0324,0.013523,0.002678,0.000431,0.005406
14241000,0.0324,0.013523,0.002678,0.000431,0.006229
14242000,0.0324,0.013523,0.002678,0.000431,0.006464
14243000,0.0324,0.013523,0.002678,0.000431,0.006111
14244000,0.0324,0.013523,0.002678,0.000431,0.006111
14245000,0.0324,0.013523,0.002678,0.000431,0.006817
14246000,0.0324,0.013523,0.002678,0.000431,0.006934
14247000,0.0324,0.013523,0.002678,0.000431,0.006699
14248000,0.0324,0.013523,0.002678,0.000431,0.006582
14249000,0.0324,0.013523,0.002678,0.000431,0.007522
14250000,0.0324,0.013523,0.002678,0.000431,0.005994
14251000,0.0324,0.013523,0.002678,0.000431,0.005876
14252000,0.0324,0.013523,0.002678,0.000431,0.006111
14253000,0.0324,0.013523,0.002678,0.000431,0.006817
14254000,0.0324,0.013523,0.002678,0.000431,0.005524
14255000,0.0324,0.013523,0.002678,0.000431,0.006582
14256000,0.0324,0.013523,0.002678,0.000431,0.006229
14257000,0.0324,0.013523,0.002678,0.000431,0.005759
14258000,0.0324,0.013523,0.002678,0.000431,0.006464
14259000,0.0324,0.013523,0.002678,0.000431,0.007639
14260000,0.0324,0.013523,0.002678,0.000431,0.006111
14261000,0.0324,0.013523,0.002678,0.000431,0.006229
14262000,0.0324,0.013523,0.002678,0.000431,0.006464
14263000,0.0324,0.013523,0.002678,0.000431,0.007404
14264000,0.0324,0.013523,0.002678,0.000431,0.006699
14265000,0.0324,0.013523,0.002678,0.000431,0.006111
14266000,0.0324,0.013523,0.002678,0.000431,0.006464
14267000,0.0324,0.013523,0.002678,0.000431,0.005994
14268000,0.0324,0.013523,0.002678,0.000431,0.006817
14269000,0.0324,0.013523,0.002678,0.000431,0.005759
14270000,0.0324,0.013523,0.002678,0.000431,0.006347
14271000,0.0324,0.013523,0.002678,0.000431,0.005759
14272000,0.0324,0.013523,0.002678,0.000431,0.006934
14273000,0.0324,0.013523,0.002678,0.000431,0.006582
14274000,0.0324,0.013523,0.002678,0.000431,0.006347
14275000,0.0324,0.013523,0.002678,0.000431,0.007169
14276000,0.0324,0.013523,0.002678,0.000431,0.006347
14277000,0.0324,0.013523,0.002678,0.000431,0.006229
14278000,0.0324,0.013523,0.002678,0.000431,0.006699
14279000,0.0324,0.013523,0.002678,0.000431,0.006699
14280000,0.0324,0.013523,0.002678,0.000431,0.006582
14281000,0.0324,0.013523,0.002678,0.000431,0.006347
14282000,0.0324,0.013523,0.002678,0.000431,0.005406
14283000,0.0324,0.013523,0.002678,0.000431,0.006817
14284000,0.0324,0.013523,0.002678,0.000431,0.006111
14285000,0.0324,0.013523,0.002678,0.000431,0.006229
14286000,0.0324,0.013523,0.002678,0.000431,0.006817
14287000,0.0324,0.013523,0.002678,0.000431,0.006817
14288000,0.0324,0.013523,0.002678,0.000431,0.005994
14289000,0.0324,0.013523,0.002678,0.000431,0.006229
14290000,0.0324,0.013523,0.002678,0.000431,0.006229
14291000,0.0324,0.013523,0.002678,0.000431,0.006229
14292000,0.0324,0.013523,0.002678,0.000431,0.006111
14293000,0.0324,0.013523,0.002678,0.000431,0.005641
14294000,0.0324,0.013523,0.002678,0.000431,0.006582
14295000,0.0324,0.013523,0.002678,0.000431,0.006111
14296000,0.0324,0.013523,0.002678,0.000431,0.006934
14297000,0.0324,0.013523,0.002678,0.000431,0.006934
14298000,0.0324,0.013523,0.002678,0.000431,0.006111
14299000,0.0324,0.013523,0.002678,0.000431,0.006582
14300000,0.0324,0.013523,0.002678,0.000431,0.006817
14301000,0.0324,0.013523,0.002678,0.000431,0.006111
14302000,0.0324,0.013523,0.002678,0.000431,0.005759
14303000,0.0324,0.013523,0.002678,0.000431,0.005876
14304000,0.0324,0.013523,0.002678,0.000431,0.006229
14305000,0.0324,0.013523,0.002678,0.000431,0.005641
14306000,0.0324,0.013523,0.002678,0.000431,0.005759
14307000,0.0324,0.013523,0.002678,0.000431,0.006111
14308000,0.0324,0.013523,0.002678,0.000431,0.006699
14309000,0.0324,0.013523,0.002678,0.000431,0.006229
14310000,0.0324,0.013523,0.002678,0.000431,0.006347
14311000,0.0324,0.013523,0.002678,0.000431,0.006111
14312000,0.0324,0.013523,0.002678,0.000431,0.005876
14313000,0.0324,0.013523,0.002678,0.000431,0.006111
14314000,0.0324,0.013523,0.002678,0.000431,0.006111
14315000,0.0324,0.013523,0.002678,0.000431,0.005406
14316000,0.0324,0.013523,0.002678,0.000431,0.006229
14317000,0.0324,0.013523,0.002678,0.000431,0.006347
14318000,0.0324,0.013523,0.002678,0.000431,0.005759
14319000,0.0324,0.013523,0.002678,0.000431,0.005994
14320000,0.0324,0.013523,0.002678,0.000431,0.006111
14321000,0.0324,0.013523,0.002678,0.000431,0.006817
14322000,0.0324,0.013523,0.002678,0.000431,0.005406
14323000,0.0324,0.013523,0.002678,0.000431,0.005876
14324000,0.0324,0.013523,0.002678,0.000431,0.006111
14325000,0.0324,0.013523,0.002678,0.000431,0.006347
14326000,0.0324,0.013523,0.002678,0.000431,0.005876
14327000,0.0324,0.013523,0.002678,0.000431,0.005641
14328000,0.0324,0.013523,0.002678,0.000431,0.006582
14329000,0.0324,0.013523,0.002678,0.000431,0.005876
14330000,0.0324,0.013523,0.002678,0.000431,0.006229
14331000,0.0324,0.013523,0.002678,0.000431,0.006229
14332000,0.0324,0.013523,0.002678,0.000431,0.006111
14333000,0.0324,0.013523,0.002678,0.000431,0.005524
14334000,0.0324,0.013523,0.002678,0.000431,0.005994
14335000,0.0324,0.013523,0.002678,0.000431,0.006111
14336000,0.0324,0.013523,0.002678,0.000431,0.005876
14337000,0.0324,0.013523,0.002678,0.000431,0.005524
14338000,0.0324,0.013523,0.002678,0.000431,0.006934
14339000,0.0324,0.013523,0.002678,0.000431,0.006347
14340000,0.0324,0.013523,0.002678,0.000431,0.006582
14341000,0.0324,0.013523,0.002678,0.000431,0.005759
14342000,0.0324,0.013523,0.002678,0.000431,0.006699
14343000,0.0324,0.013523,0.002678,0.000431,0.005641
14344000,0.0324,0.013523,0.002678,0.000431,0.005641
14345000,0.0324,0.013523,0.002678,0.000431,0.006229
14346000,0.0324,0.013523,0.002678,0.000431,0.005994
14347000,0.0324,0.013523,0.002678,0.000431,0.005524
14348000,0.0324,0.013523,0.002678,0.000431,0.005524
14349000,0.0324,0.013523,0.002678,0.000431,0.006464
14350000,0.0324,0.013523,0.002678,0.000431,0.005759
14351000,0.0324,0.013523,0.002678,0.000431,0.006347
14352000,0.0324,0.013523,0.002678,0.000431,0.005994
14353000,0.0324,0.013523,0.002678,0.000431,0.005289
14354000,0.0324,0.013523,0.002678,0.000431,0.006464
14355000,0.0324,0.013523,0.002678,0.000431,0.006229
14356000,0.0324,0.013523,0.002678,0.000431,0.005759
14357000,0.0324,0.013523,0.002678,0.000431,0.005994
14358000,0.0324,0.013523,0.002678,0.000431,0.006111
14359000,0.0324,0.013523,0.002678,0.000431,0.005641
14360000,0.0324,0.013523,0.002678,0.000431,0.005876
14361000,0.0324,0.013523,0.002678,0.000431,0.006229
14362000,0.0324,0.013523,0.002678,0.000431,0.006229
14363000,0.0324,0.013523,0.002678,0.000431,0.006582
14364000,0.0324,0.013523,0.002678,0.000431,0.005524
14365000,0.0324,0.013523,0.002678,0.000431,0.006111
14366000,0.0324,0.013523,0.002678,0.000431,0.005524
14367000,0.0324,0.013523,0.002678,0.000431,0.005876
14368000,0.0324,0.013523,0.002678,0.000431,0.006582
14369000,0.0324,0.013523,0.002678,0.000431,0.005641
14370000,0.0324,0.013523,0.002678,0.000431,0.005641
14371000,0.0324,0.013523,0.002678,0.000431,0.006347
14372000,0.0324,0.013523,0.002678,0.000431,0.006111
14373000,0.0324,0.013523,0.002678,0.000431,0.005876
14374000,0.0324,0.013523,0.002678,0.000431,0.006347
14375000,0.0324,0.013523,0.002678,0.000431,0.004936
14376000,0.0324,0.013523,0.002678,0.000431,0.005759
14377000,0.0324,0.013523,0.002678,0.000431,0.005524
14378000,0.0324,0.013523,0.002678,0.000431,0.005759
14379000,0.0324,0.013523,0.002678,0.000431,0.005994
14380000,0.0324,0.013523,0.002678,0.000431,0.005876
14381000,0.0324,0.013523,0.002678,0.000431,0.005759
14382000,0.0324,0.013523,0.002678,0.000431,0.006699
14383000,0.0324,0.013523,0.002678,0.000431,0.006111
14384000,0.0324,0.013523,0.002678,0.000431,0.006229
14385000,0.0324,0.013523,0.002678,0.000431,0.005994
14386000,0.0324,0.013523,0.002678,0.000431,0.005994
14387000,0.0324,0.013523,0.002678,0.000431,0.005759
14388000,0.0324,0.013523,0.002678,0.000431,0.005994
14389000,0.0324,0.013523,0.002678,0.000431,0.006699
14390000,0.0324,0.013523,0.002678,0.000431,0.006347
14391000,0.0324,0.013523,0.002678,0.000431,0.005524
14392000,0.0324,0.013523,0.002678,0.000431,0.006111
14393000,0.0324,0.013523,0.002678,0.000431,0.005524
14394000,0.0324,0.013523,0.002678,0.000431,0.005876
14395000,0.0324,0.013523,0.002678,0.000431,0.005759
14396000,0.0324,0.013523,0.002678,0.000431,0.006464
14397000,0.0324,0.013523,0.002678,0.000431,0.006111
14398000,0.0324,0.013523,0.002678,0.000431,0.005641
14399000,0.0324,0.013523,0.002678,0.000431,0.006699
14400000,0.0324,0.013523,0.002678,0.000431,0.006229
14401000,0.0324,0.013523,0.002678,0.000431,0.005524
14402000,0.0324,0.013523,0.002678,0.000431,0.005876
14403000,0.0324,0.013523,0.002678,0.000431,0.006229
14404000,0.0324,0.013523,0.002678,0.000431,0.006111
14405000,0.0324,0.013523,0.002678,0.000431,0.005524
14406000,0.0324,0.013523,0.002678,0.000431,0.005994
14407000,0.0324,0.013523,0.002678,0.000431,0.005994
14408000,0.0324,0.013523,0.002678,0.000431,0.005994
14409000,0.0324,0.013523,0.002678,0.000431,0.005994
14410000,0.0324,0.013523,0.002678,0.000431,0.006229
14411000,0.0324,0.013523,0.002678,0.000431,0.005994
14412000,0.0324,0.013523,0.002678,0.000431,0.006229
14413000,0.0324,0.013523,0.002678,0.000431,0.006111
14414000,0.0324,0.013523,0.002678,0.000431,0.006464
14415000,0.0324,0.013523,0.002678,0.000431,0.006699
14416000,0.0324,0.013523,0.002678,0.000431,0.006347
14417000,0.0324,0.013523,0.002678,0.000431,0.007052
14418000,0.0324,0.013523,0.002678,0.000431,0.005054
14419000,0.0324,0.013523,0.002678,0.000431,0.007287
14420000,0.0324,0.013523,0.002678,0.000431,0.006464
14421000,0.0324,0.013523,0.002678,0.000431,0.006699
14422000,0.0324,0.013523,0.002678,0.000431,0.005759
14423000,0.0324,0.013523,0.002678,0.000431,0.006347
14424000,0.0324,0.013523,0.002678,0.000431,0.006229
14425000,0.0324,0.013523,0.002678,0.000431,0.006582
14426000,0.0324,0.013523,0.002678,0.000431,0.006111
14427000,0.0324,0.013523,0.002678,0.000431,0.006229
14428000,0.0324,0.013523,0.002678,0.000431,0.005406
14429000,0.0324,0.013523,0.002678,0.000431,0.005759
14430000,0.0324,0.013523,0.002678,0.000431,0.005994
14431000,0.0324,0.013523,0.002678,0.000431,0.006347
14432000,0.0324,0.013523,0.002678,0.000431,0.005994
14433000,0.0324,0.013523,0.002678,0.000431,0.005759
14434000,0.0324,0.013523,0.002678,0.000431,0.006817
14435000,0.0324,0.013523,0.002678,0.000431,0.005994
14436000,0.0324,0.013523,0.002678,0.000431,0.005759
14437000,0.0324,0.013523,0.002678,0.000431,0.005876
14438000,0.0324,0.013523,0.002678,0.000431,0.006699
14439000,0.0324,0.013523,0.002678,0.000431,0.006464
14440000,0.0324,0.013523,0.002678,0.000431,0.005406
14441000,0.0324,0.013523,0.002678,0.000431,0.006582
14442000,0.0324,0.013523,0.002678,0.000431,0.005994
14443000,0.0324,0.013523,0.002678,0.000431,0.006111
14444000,0.0324,0.013523,0.002678,0.000431,0.006111
14445000,0.0324,0.013523,0.002678,0.000431,0.006111
14446000,0.0324,0.013523,0.002678,0.000431,0.005994
14447000,0.0324,0.013523,0.002678,0.000431,0.006111
14448000,0.0324,0.013523,0.002678,0.000431,0.006347
14449000,0.0324,0.013523,0.002678,0.000431,0.006111
14450000,0.0324,0.013523,0.002678,0.000431,0.006111
14451000,0.0324,0.013523,0.002678,0.000431,0.006464
14452000,0.0324,0.013523,0.002678,0.000431,0.005759
14453000,0.0324,0.013523,0.002678,0.000431,0.006111
14454000,0.0324,0.013523,0.002678,0.000431,0.006464
14455000,0.0324,0.013523,0.002678,0.000431,0.006464
14456000,0.0324,0.013523,0.002678,0.000431,0.006582
14457000,0.0324,0.013523,0.002678,0.000431,0.006347
14458000,0.0324,0.013523,0.002678,0.000431,0.006582
14459000,0.0324,0.013523,0.002678,0.000431,0.005054
14460000,0.0324,0.013523,0.002678,0.000431,0.007169
14461000,0.0324,0.013523,0.002678,0.000431,0.006111
14462000,0.0324,0.013523,0.002678,0.000431,0.006347
14463000,0.0324,0.013523,0.002678,0.000431,0.005759
14464000,0.0324,0.013523,0.002678,0.000431,0.006229
14465000,0.0324,0.013523,0.002678,0.000431,0.006347
14466000,0.0324,0.013523,0.002678,0.000431,0.006229
14467000,0.0324,0.013523,0.002678,0.000431,0.005641
14468000,0.0324,0.013523,0.002678,0.000431,0.006347
14469000,0.0324,0.013523,0.002678,0.000431,0.005876
14470000,0.0324,0.013523,0.002678,0.000431,0.006699
14471000,0.0324,0.013523,0.002678,0.000431,0.005876
14472000,0.0324,0.013523,0.002678,0.000431,0.006111
14473000,0.0324,0.013523,0.002678,0.000431,0.006229
14474000,0.0324,0.013523,0.002678,0.000431,0.005759
14475000,0.0324,0.013523,0.002678,0.000431,0.006111
14476000,0.0324,0.013523,0.002678,0.000431,0.006347
14477000,0.0324,0.013523,0.002678,0.000431,0.005759
14478000,0.0324,0.013523,0.002678,0.000431,0.006582
14479000,0.0324,0.013523,0.002678,0.000431,0.005994
14480000,0.0324,0.013523,0.002678,0.000431,0.005994
14481000,0.0324,0.013523,0.002678,0.000431,0.005759
14482000,0.0324,0.013523,0.002678,0.000431,0.007052
14483000,0.0324,0.013523,0.002678,0.000431,0.006699
14484000,0.0324,0.013523,0.002678,0.000431,0.005994
14485000,0.0324,0.013523,0.002678,0.000431,0.005524
14486000,0.0324,0.013523,0.002678,0.000431,0.006347
14487000,0.0324,0.013523,0.002678,0.000431,0.005524
14488000,0.0324,0.013523,0.002678,0.000431,0.006229
14489000,0.0324,0.013523,0.002678,0.000431,0.006699
14490000,0.0324,0.013523,0.002678,0.000431,0.006229
14491000,0.0324,0.013523,0.002678,0.000431,0.006699
14492000,0.0324,0.013523,0.002678,0.000431,0.006347
14493000,0.0324,0.013523,0.002678,0.000431,0.005641
14494000,0.0324,0.013523,0.002678,0.000431,0.006229
14495000,0.0324,0.013523,0.002678,0.000431,0.005641
14496000,0.0324,0.013523,0.002678,0.000431,0.006464
14497000,0.0324,0.013523,0.002678,0.000431,0.006464
14498000,0.0324,0.013523,0.002678,0.000431,0.006111
14499000,0.0324,0.013523,0.002678,0.000431,0.005994
14500000,0.0324,0.013523,0.002678,0.000431,0.006347
14501000,0.0324,0.013523,0.002678,0.000431,0.006464
14502000,0.0324,0.013523,0.002678,0.000431,0.006699
14503000,0.0324,0.013523,0.002678,0.000431,0.006229
14504000,0.0324,0.013523,0.002678,0.000431,0.005759
14505000,0.0324,0.013523,0.002678,0.000431,0.006464
14506000,0.0324,0.013523,0.002678,0.000431,0.006347
14507000,0.0324,0.013523,0.002678,0.000431,0.006229
14508000,0.0324,0.013523,0.002678,0.000431,0.005641
14509000,0.0324,0.013523,0.002678,0.000431,0.005759
14510000,0.0324,0.013523,0.002678,0.000431,0.006699
14511000,0.0324,0.013523,0.002678,0.000431,0.006229
14512000,0.0324,0.013523,0.002678,0.000431,0.006347
14513000,0.0324,0.013523,0.002678,0.000431,0.005876
14514000,0.0324,0.013523,0.002678,0.000431,0.005759
14515000,0.0324,0.013523,0.002678,0.000431,0.006111
14516000,0.0324,0.013523,0.002678,0.000431,0.006817
14517000,0.0324,0.013523,0.002678,0.000431,0.006464
14518000,0.0324,0.013523,0.002678,0.000431,0.005524
14519000,0.0324,0.013523,0.002678,0.000431,0.006111
14520000,0.0324,0.013523,0.002678,0.000431,0.006464
14521000,0.0324,0.013523,0.002678,0.000431,0.006347
14522000,0.0324,0.013523,0.002678,0.000431,0.005994
14523000,0.0324,0.013523,0.002678,0.000431,0.005524
14524000,0.0324,0.013523,0.002678,0.000431,0.006464
14525000,0.0324,0.013523,0.002678,0.000431,0.006111
14526000,0.0324,0.013523,0.002678,0.000431,0.005289
14527000,0.0324,0.013523,0.002678,0.000431,0.006464
14528000,0.0324,0.013523,0.002678,0.000431,0.005641
14529000,0.0324,0.013523,0.002678,0.000431,0.006229
14530000,0.0324,0.013523,0.002678,0.000431,0.006464
14531000,0.0324,0.013523,0.002678,0.000431,0.005406
14532000,0.0324,0.013523,0.002678,0.000431,0.005759
14533000,0.0324,0.013523,0.002678,0.000431,0.005759
14534000,0.0324,0.013523,0.002678,0.000431,0.006229
14535000,0.0324,0.013523,0.002678,0.000431,0.005641
14536000,0.0324,0.013523,0.002678,0.000431,0.005759
14537000,0.0324,0.013523,0.002678,0.000431,0.005641
14538000,0.0324,0.013523,0.002678,0.000431,0.006347
14539000,0.0324,0.013523,0.002678,0.000431,0.006347
14540000,0.0324,0.013523,0.002678,0.000431,0.005876
14541000,0.0324,0.013523,0.002678,0.000431,0.005876
14542000,0.0324,0.013523,0.002678,0.000431,0.006111
14543000,0.0324,0.013523,0.002678,0.000431,0.006347
14544000,0.0324,0.013523,0.002678,0.000431,0.005994
14545000,0.0324,0.013523,0.002678,0.000431,0.006347
14546000,0.0324,0.013523,0.002678,0.000431,0.006464
14547000,0.0324,0.013523,0.002678,0.000431,0.006699
14548000,0.0324,0.013523,0.002678,0.000431,0.006229
14549000,0.0324,0.013523,0.002678,0.000431,0.005759
14550000,0.0324,0.013523,0.002678,0.000431,0.006229
14551000,0.0324,0.013523,0.002678,0.000431,0.006464
14552000,0.0324,0.013523,0.002678,0.000431,0.006111
14553000,0.0324,0.013523,0.002678,0.000431,0.005994
14554000,0.0324,0.013523,0.002678,0.000431,0.006229
14555000,0.0324,0.013523,0.002678,0.000431,0.005641
14556000,0.0324,0.013523,0.002678,0.000431,0.005289
14557000,0.0324,0.013523,0.002678,0.000431,0.006817
14558000,0.0324,0.013523,0.002678,0.000431,0.005641
14559000,0.0324,0.013523,0.002678,0.000431,0.005641
14560000,0.0324,0.013523,0.002678,0.000431,0.006464
14561000,0.0324,0.013523,0.002678,0.000431,0.006464
14562000,0.0324,0.013523,0.002678,0.000431,0.005406
14563000,0.0324,0.013523,0.002678,0.000431,0.006699
14564000,0.0324,0.013523,0.002678,0.000431,0.006464
14565000,0.0324,0.013523,0.002678,0.000431,0.006582
14566000,0.0324,0.013523,0.002678,0.000431,0.005994
14567000,0.0324,0.013523,0.002678,0.000431,0.006347
14568000,0.0324,0.013523,0.002678,0.000431,0.006347
14569000,0.0324,0.013523,0.002678,0.000431,0.005406
14570000,0.0324,0.013523,0.002678,0.000431,0.006347
14571000,0.0324,0.013523,0.002678,0.000431,0.006582
14572000,0.0324,0.013523,0.002678,0.000431,0.006229
14573000,0.0324,0.013523,0.002678,0.000431,0.005876
14574000,0.0324,0.013523,0.002678,0.000431,0.006934
14575000,0.0324,0.013523,0.002678,0.000431,0.007052
14576000,0.0324,0.013523,0.002678,0.000431,0.005994
14577000,0.0324,0.013523,0.002678,0.000431,0.006464
14578000,0.0324,0.013523,0.002678,0.000431,0.006464
14579000,0.0324,0.013523,0.002678,0.000431,0.006111
14580000,0.0324,0.013523,0.002678,0.000431,0.005759
14581000,0.0324,0.013523,0.002678,0.000431,0.005994
14582000,0.0324,0.013523,0.002678,0.000431,0.005994
14583000,0.0324,0.013523,0.002678,0.000431,0.006464
14584000,0.0324,0.013523,0.002678,0.000431,0.005759
14585000,0.0324,0.013523,0.002678,0.000431,0.006582
14586000,0.0324,0.013523,0.002678,0.000431,0.005759
14587000,0.0324,0.013523,0.002678,0.000431,0.006464
14588000,0.0324,0.013523,0.002678,0.000431,0.006347
14589000,0.0324,0.013523,0.002678,0.000431,0.006111
14590000,0.0324,0.013523,0.002678,0.000431,0.006111
14591000,0.0324,0.013523,0.002678,0.000431,0.005289
14592000,0.0324,0.013523,0.002678,0.000431,0.006347
14593000,0.0324,0.013523,0.002678,0.000431,0.005876
14594000,0.0324,0.013523,0.002678,0.000431,0.006111
14595000,0.0324,0.013523,0.002678,0.000431,0.006229
14596000,0.0324,0.013523,0.002678,0.000431,0.006229
14597000,0.0324,0.013523,0.002678,0.000431,0.005524
14598000,0.0324,0.013523,0.002678,0.000431,0.006464
14599000,0.0324,0.013523,0.002678,0.000431,0.005759
14600000,0.0324,0.013523,0.002678,0.000431,0.006111
14601000,0.0324,0.013523,0.002678,0.000431,0.006699
14602000,0.0324,0.013523,0.002678,0.000431,0.006347
14603000,0.0324,0.013523,0.002678,0.000431,0.006582
14604000,0.0324,0.013523,0.002678,0.000431,0.006111
14605000,0.0324,0.013523,0.002678,0.000431,0.006934
14606000,0.0324,0.013523,0.002678,0.000431,0.005289
14607000,0.0324,0.013523,0.002678,0.000431,0.006582
14608000,0.0324,0.013523,0.002678,0.000431,0.006464
14609000,0.0324,0.013523,0.002678,0.000431,0.005759
14610000,0.0324,0.013523,0.002678,0.000431,0.005641
14611000,0.0324,0.013523,0.002678,0.000431,0.006817
14612000,0.0324,0.013523,0.002678,0.000431,0.006699
14613000,0.0324,0.013523,0.002678,0.000431,0.005994
14614000,0.0324,0.013523,0.002678,0.000431,0.006347
14615000,0.0324,0.013523,0.002678,0.000431,0.005994
14616000,0.0324,0.013523,0.002678,0.000431,0.006111
14617000,0.0324,0.013523,0.002678,0.000431,0.006229
14618000,0.0324,0.013523,0.002678,0.000431,0.006111
14619000,0.0324,0.013523,0.002678,0.000431,0.006347
14620000,0.0324,0.013523,0.002678,0.000431,0.006347
14621000,0.0324,0.013523,0.002678,0.000431,0.006582
14622000,0.0324,0.013523,0.002678,0.000431,0.006111
14623000,0.0324,0.013523,0.002678,0.000431,0.006582
14624000,0.0324,0.013523,0.002678,0.000431,0.006229
14625000,0.0324,0.013523,0.002678,0.000431,0.005406
14626000,0.0324,0.013523,0.002678,0.000431,0.006229
14627000,0.0324,0.013523,0.002678,0.000431,0.006111
14628000,0.0324,0.013523,0.002678,0.000431,0.005994
14629000,0.0324,0.013523,0.002678,0.000431,0.005759
14630000,0.0324,0.013523,0.002678,0.000431,0.006111
14631000,0.0324,0.013523,0.002678,0.000431,0.006464
14632000,0.0324,0.013523,0.002678,0.000431,0.006347
14633000,0.0324,0.013523,0.002678,0.000431,0.006111
14634000,0.0324,0.013523,0.002678,0.000431,0.005759
14635000,0.0324,0.013523,0.002678,0.000431,0.006229
14636000,0.0324,0.013523,0.002678,0.000431,0.006347
14637000,0.0324,0.013523,0.002678,0.000431,0.006229
14638000,0.0324,0.013523,0.002678,0.000431,0.007052
14639000,0.0324,0.013523,0.002678,0.000431,0.005994
14640000,0.0324,0.013523,0.002678,0.000431,0.006229
14641000,0.0324,0.013523,0.002678,0.000431,0.005759
14642000,0.0324,0.013523,0.002678,0.000431,0.006111
14643000,0.0324,0.013523,0.002678,0.000431,0.006464
14644000,0.0324,0.013523,0.002678,0.000431,0.005641
14645000,0.0324,0.013523,0.002678,0.000431,0.005759
14646000,0.0324,0.013523,0.002678,0.000431,0.007287
14647000,0.0324,0.013523,0.002678,0.000431,0.006464
14648000,0.0324,0.013523,0.002678,0.000431,0.005524
14649000,0.0324,0.013523,0.002678,0.000431,0.005994
14650000,0.0324,0.013523,0.002678,0.000431,0.006347
14651000,0.0324,0.013523,0.002678,0.000431,0.006229
14652000,0.0324,0.013523,0.002678,0.000431,0.006582
14653000,0.0324,0.013523,0.002678,0.000431,0.006229
14654000,0.0324,0.013523,0.002678,0.000431,0.006347
14655000,0.0324,0.013523,0.002678,0.000431,0.006699
14656000,0.0324,0.013523,0.002678,0.000431,0.006111
14657000,0.0324,0.013523,0.002678,0.000431,0.005994
14658000,0.0324,0.013523,0.002678,0.000431,0.005876
14659000,0.0324,0.013523,0.002678,0.000431,0.006347
14660000,0.0324,0.013523,0.002678,0.000431,0.006111
14661000,0.0324,0.013523,0.002678,0.000431,0.006699
14662000,0.0324,0.013523,0.002678,0.000431,0.005289
14663000,0.0324,0.013523,0.002678,0.000431,0.006229
14664000,0.0324,0.013523,0.002678,0.000431,0.006934
14665000,0.0324,0.013523,0.002678,0.000431,0.005876
14666000,0.0324,0.013523,0.002678,0.000431,0.006464
14667000,0.0324,0.013523,0.002678,0.000431,0.006464
14668000,0.0324,0.013523,0.002678,0.000431,0.006699
14669000,0.0324,0.013523,0.002678,0.000431,0.005054
14670000,0.0324,0.013523,0.002678,0.000431,0.006817
14671000,0.0324,0.013523,0.002678,0.000431,0.006347
14672000,0.0324,0.013523,0.002678,0.000431,0.005524
14673000,0.0324,0.013523,0.002678,0.000431,0.006111
14674000,0.0324,0.013523,0.002678,0.000431,0.005876
14675000,0.0324,0.013523,0.002678,0.000431,0.006817
14676000,0.0324,0.013523,0.002678,0.000431,0.006111
14677000,0.0324,0.013523,0.002678,0.000431,0.006347
14678000,0.0324,0.013523,0.002678,0.000431,0.006464
14679000,0.0324,0.013523,0.002678,0.000431,0.006699
14680000,0.0324,0.013523,0.002678,0.000431,0.006464
14681000,0.0324,0.013523,0.002678,0.000431,0.006699
14682000,0.0324,0.013523,0.002678,0.000431,0.005524
14683000,0.0324,0.013523,0.002678,0.000431,0.006817
14684000,0.0324,0.013523,0.002678,0.000431,0.005876
14685000,0.0324,0.013523,0.002678,0.000431,0.006582
14686000,0.0324,0.013523,0.002678,0.000431,0.005641
14687000,0.0324,0.013523,0.002678,0.000431,0.006699
14688000,0.0324,0.013523,0.002678,0.000431,0.006699
14689000,0.0324,0.013523,0.002678,0.000431,0.005054
14690000,0.0324,0.013523,0.002678,0.000431,0.006817
14691000,0.0324,0.013523,0.002678,0.000431,0.005876
14692000,0.0324,0.013523,0.002678,0.000431,0.005876
14693000,0.0324,0.013523,0.002678,0.000431,0.006229
14694000,0.0324,0.013523,0.002678,0.000431,0.006934
14695000,0.0324,0.013523,0.002678,0.000431,0.006464
14696000,0.0324,0.013523,0.002678,0.000431,0.005876
14697000,0.0324,0.013523,0.002678,0.000431,0.005876
14698000,0.0324,0.013523,0.002678,0.000431,0.006229
14699000,0.0324,0.013523,0.002678,0.000431,0.005641
14700000,0.0324,0.013523,0.002678,0.000431,0.006582
14701000,0.0324,0.013523,0.002678,0.000431,0.006464
14702000,0.0324,0.013523,0.002678,0.000431,0.006464
14703000,0.0324,0.013523,0.002678,0.000431,0.006817
14704000,0.0324,0.013523,0.002678,0.000431,0.005876
14705000,0.0324,0.013523,0.002678,0.000431,0.006347
14706000,0.0324,0.013523,0.002678,0.000431,0.005641
14707000,0.0324,0.013523,0.002678,0.000431,0.006111
14708000,0.0324,0.013523,0.002678,0.000431,0.007052
14709000,0.0324,0.013523,0.002678,0.000431,0.006817
14710000,0.0324,0.013523,0.002678,0.000431,0.005171
14711000,0.0324,0.013523,0.002678,0.000431,0.006582
14712000,0.0324,0.013523,0.002678,0.000431,0.006111
14713000,0.0324,0.013523,0.002678,0.000431,0.006582
14714000,0.0324,0.013523,0.002678,0.000431,0.005994
14715000,0.0324,0.013523,0.002678,0.000431,0.006347
14716000,0.0324,0.013523,0.002678,0.000431,0.006817
14717000,0.0324,0.013523,0.002678,0.000431,0.006347
14718000,0.0324,0.013523,0.002678,0.000431,0.005641
14719000,0.0324,0.013523,0.002678,0.000431,0.006582
14720000,0.0324,0.013523,0.002678,0.000431,0.006464
14721000,0.0324,0.013523,0.002678,0.000431,0.006111
14722000,0.0324,0.013523,0.002678,0.000431,0.006347
14723000,0.0324,0.013523,0.002678,0.000431,0.006347
14724000,0.0324,0.013523,0.002678,0.000431,0.006111
14725000,0.0324,0.013523,0.002678,0.000431,0.006347
14726000,0.0324,0.013523,0.002678,0.000431,0.005994
14727000,0.0324,0.013523,0.002678,0.000431,0.005994
14728000,0.0324,0.013523,0.002678,0.000431,0.006229
14729000,0.0324,0.013523,0.002678,0.000431,0.006699
14730000,0.0324,0.013523,0.002678,0.000431,0.006347
14731000,0.0324,0.013523,0.002678,0.000431,0.005406
14732000,0.0324,0.013523,0.002678,0.000431,0.005759
14733000,0.0324,0.013523,0.002678,0.000431,0.005994
14734000,0.0324,0.013523,0.002678,0.000431,0.005876
14735000,0.0324,0.013523,0.002678,0.000431,0.006464
14736000,0.0324,0.013523,0.002678,0.000431,0.005876
14737000,0.0324,0.013523,0.002678,0.000431,0.005876
14738000,0.0324,0.013523,0.002678,0.000431,0.005994
14739000,0.0324,0.013523,0.002678,0.000431,0.006699
14740000,0.0324,0.013523,0.002678,0.000431,0.006464
14741000,0.0324,0.013523,0.002678,0.000431,0.006699
14742000,0.0324,0.013523,0.002678,0.000431,0.006111
14743000,0.0324,0.013523,0.002678,0.000431,0.006464
14744000,0.0324,0.013523,0.002678,0.000431,0.005994
14745000,0.0324,0.013523,0.002678,0.000431,0.005406
14746000,0.0324,0.013523,0.002678,0.000431,0.007169
14747000,0.0324,0.013523,0.002678,0.000431,0.006229
14748000,0.0324,0.013523,0.002678,0.000431,0.006229
14749000,0.0324,0.013523,0.002678,0.000431,0.005641
14750000,0.0324,0.013523,0.002678,0.000431,0.006464
14751000,0.0324,0.013523,0.002678,0.000431,0.006699
14752000,0.0324,0.013523,0.002678,0.000431,0.006229
14753000,0.0324,0.013523,0.002678,0.000431,0.006464
14754000,0.0324,0.013523,0.002678,0.000431,0.005759
14755000,0.0324,0.013523,0.002678,0.000431,0.006699
14756000,0.0324,0.013523,0.002678,0.000431,0.006347
14757000,0.0324,0.013523,0.002678,0.000431,0.006111
14758000,0.0324,0.013523,0.002678,0.000431,0.006464
14759000,0.0324,0.013523,0.002678,0.000431,0.005994
14760000,0.0324,0.013523,0.002678,0.000431,0.006111
14761000,0.0324,0.013523,0.002678,0.000431,0.005759
14762000,0.0324,0.013523,0.002678,0.000431,0.006699
14763000,0.0324,0.013523,0.002678,0.000431,0.006817
14764000,0.0324,0.013523,0.002678,0.000431,0.005759
14765000,0.0324,0.013523,0.002678,0.000431,0.006464
14766000,0.0324,0.013523,0.002678,0.000431,0.006582
14767000,0.0324,0.013523,0.002678,0.000431,0.005994
14768000,0.0324,0.013523,0.002678,0.000431,0.006699
14769000,0.0324,0.013523,0.002678,0.000431,0.006111
14770000,0.0324,0.013523,0.002678,0.000431,0.005759
14771000,0.0324,0.013523,0.002678,0.000431,0.005876
14772000,0.0324,0.013523,0.002678,0.000431,0.006111
14773000,0.0324,0.013523,0.002678,0.000431,0.006934
14774000,0.0324,0.013523,0.002678,0.000431,0.006347
14775000,0.0324,0.013523,0.002678,0.000431,0.006347
14776000,0.0324,0.013523,0.002678,0.000431,0.006699
14777000,0.0324,0.013523,0.002678,0.000431,0.005524
14778000,0.0324,0.013523,0.002678,0.000431,0.006111
14779000,0.0324,0.013523,0.002678,0.000431,0.006347
14780000,0.0324,0.013523,0.002678,0.000431,0.006582
14781000,0.0324,0.013523,0.002678,0.000431,0.006582
14782000,0.0324,0.013523,0.002678,0.000431,0.005524
14783000,0.0324,0.013523,0.002678,0.000431,0.006582
14784000,0.0324,0.013523,0.002678,0.000431,0.006111
14785000,0.0324,0.013523,0.002678,0.000431,0.005876
14786000,0.0324,0.013523,0.002678,0.000431,0.006347
14787000,0.0324,0.013523,0.002678,0.000431,0.006111
14788000,0.0324,0.013523,0.002678,0.000431,0.006111
14789000,0.0324,0.013523,0.002678,0.000431,0.006229
14790000,0.0324,0.013523,0.002678,0.000431,0.006229
14791000,0.0324,0.013523,0.002678,0.000431,0.006582
14792000,0.0324,0.013523,0.002678,0.000431,0.006347
14793000,0.0324,0.013523,0.002678,0.000431,0.006229
14794000,0.0324,0.013523,0.002678,0.000431,0.006464
14795000,0.0324,0.013523,0.002678,0.000431,0.006817
14796000,0.0324,0.013523,0.002678,0.000431,0.005524
14797000,0.0324,0.013523,0.002678,0.000431,0.006464
14798000,0.0324,0.013523,0.002678,0.000431,0.005994
14799000,0.0324,0.013523,0.002678,0.000431,0.005759
14800000,0.0324,0.013523,0.002678,0.000431,0.005524
14801000,0.0324,0.013523,0.002678,0.000431,0.005641
14802000,0.0324,0.013523,0.002678,0.000431,0.006347
14803000,0.0324,0.013523,0.002678,0.000431,0.006347
14804000,0.0324,0.013523,0.002678,0.000431,0.006229
14805000,0.0324,0.013523,0.002678,0.000431,0.005994
14806000,0.0324,0.013523,0.002678,0.000431,0.005759
14807000,0.0324,0.013523,0.002678,0.000431,0.006582
14808000,0.0324,0.013523,0.002678,0.000431,0.005994
14809000,0.0324,0.013523,0.002678,0.000431,0.005876
14810000,0.0324,0.013523,0.002678,0.000431,0.005876
14811000,0.0324,0.013523,0.002678,0.000431,0.006229
14812000,0.0324,0.013523,0.002678,0.000431,0.007052
14813000,0.0324,0.013523,0.002678,0.000431,0.005994
14814000,0.0324,0.013523,0.002678,0.000431,0.006229
14815000,0.0324,0.013523,0.002678,0.000431,0.006464
14816000,0.0324,0.013523,0.002678,0.000431,0.006229
14817000,0.0324,0.013523,0.002678,0.000431,0.006229
14818000,0.0324,0.013523,0.002678,0.000431,0.006464
14819000,0.0324,0.013523,0.002678,0.000431,0.005759
14820000,0.0324,0.013523,0.002678,0.000431,0.005171
14821000,0.0324,0.013523,0.002678,0.000431,0.005994
14822000,0.0324,0.013523,0.002678,0.000431,0.006229
14823000,0.0324,0.013523,0.002678,0.000431,0.006464
14824000,0.0324,0.013523,0.002678,0.000431,0.006111
14825000,0.0324,0.013523,0.002678,0.000431,0.006111
14826000,0.0324,0.013523,0.002678,0.000431,0.006934
14827000,0.0324,0.013523,0.002678,0.000431,0.005759
14828000,0.0324,0.013523,0.002678,0.000431,0.007052
14829000,0.0324,0.013523,0.002678,0.000431,0.006111
14830000,0.0324,0.013523,0.002678,0.000431,0.006817
14831000,0.0324,0.013523,0.002678,0.000431,0.005994
14832000,0.0324,0.013523,0.002678,0.000431,0.006582
14833000,0.0324,0.013523,0.002678,0.000431,0.006464
14834000,0.0324,0.013523,0.002678,0.000431,0.005759
14835000,0.0324,0.013523,0.002678,0.000431,0.007052
14836000,0.0324,0.013523,0.002678,0.000431,0.005759
14837000,0.0324,0.013523,0.002678,0.000431,0.005759
14838000,0.0324,0.013523,0.002678,0.000431,0.006347
14839000,0.0324,0.013523,0.002678,0.000431,0.006817
14840000,0.0324,0.013523,0.002678,0.000431,0.005994
14841000,0.0324,0.013523,0.002678,0.000431,0.005876
14842000,0.0324,0.013523,0.002678,0.000431,0.006582
14843000,0.0324,0.013523,0.002678,0.000431,0.006347
14844000,0.0324,0.013523,0.002678,0.000431,0.005641
14845000,0.0324,0.013523,0.002678,0.000431,0.006817
14846000,0.0324,0.013523,0.002678,0.000431,0.006817
14847000,0.0324,0.013523,0.002678,0.000431,0.005994
14848000,0.0324,0.013523,0.002678,0.000431,0.006347
14849000,0.0324,0.013523,0.002678,0.000431,0.006229
14850000,0.0324,0.013523,0.002678,0.000431,0.006582
14851000,0.0324,0.013523,0.002678,0.000431,0.006229
14852000,0.0324,0.013523,0.002678,0.000431,0.006229
14853000,0.0324,0.013523,0.002678,0.000431,0.006582
14854000,0.0324,0.013523,0.002678,0.000431,0.005876
14855000,0.0324,0.013523,0.002678,0.000431,0.006582
14856000,0.0324,0.013523,0.002678,0.000431,0.006111
14857000,0.0324,0.013523,0.002678,0.000431,0.005994
14858000,0.0324,0.013523,0.002678,0.000431,0.005994
14859000,0.0324,0.013523,0.002678,0.000431,0.006464
14860000,0.0324,0.013523,0.002678,0.000431,0.005994
14861000,0.0324,0.013523,0.002678,0.000431,0.005759
14862000,0.0324,0.013523,0.002678,0.000431,0.005876
14863000,0.0324,0.013523,0.002678,0.000431,0.005406
14864000,0.0324,0.013523,0.002678,0.000431,0.006464
14865000,0.0324,0.013523,0.002678,0.000431,0.006347
14866000,0.0324,0.013523,0.002678,0.000431,0.006699
14867000,0.0324,0.013523,0.002678,0.000431,0.005994
14868000,0.0324,0.013523,0.002678,0.000431,0.005994
14869000,0.0324,0.013523,0.002678,0.000431,0.006699
14870000,0.0324,0.013523,0.002678,0.000431,0.005876
14871000,0.0324,0.013523,0.002678,0.000431,0.006347
14872000,0.0324,0.013523,0.002678,0.000431,0.006111
14873000,0.0324,0.013523,0.002678,0.000431,0.007052
14874000,0.0324,0.013523,0.002678,0.000431,0.005994
14875000,0.0324,0.013523,0.002678,0.000431,0.005994
14876000,0.0324,0.013523,0.002678,0.000431,0.007287
14877000,0.0324,0.013523,0.002678,0.000431,0.005876
14878000,0.0324,0.013523,0.002678,0.000431,0.006229
14879000,0.0324,0.013523,0.002678,0.000431,0.006111
14880000,0.0324,0.013523,0.002678,0.000431,0.006229
14881000,0.0324,0.013523,0.002678,0.000431,0.006934
14882000,0.0324,0.013523,0.002678,0.000431,0.006111
14883000,0.0324,0.013523,0.002678,0.000431,0.007052
14884000,0.0324,0.013523,0.002678,0.000431,0.006229
14885000,0.0324,0.013523,0.002678,0.000431,0.005641
14886000,0.0324,0.013523,0.002678,0.000431,0.006934
14887000,0.0324,0.013523,0.002678,0.000431,0.006934
14888000,0.0324,0.013523,0.002678,0.000431,0.005994
14889000,0.0324,0.013523,0.002678,0.000431,0.006699
14890000,0.0324,0.013523,0.002678,0.000431,0.006934
14891000,0.0324,0.013523,0.002678,0.000431,0.005641
14892000,0.0324,0.013523,0.002678,0.000431,0.005524
14893000,0.0324,0.013523,0.002678,0.000431,0.007052
14894000,0.0324,0.013523,0.002678,0.000431,0.005876
14895000,0.0324,0.013523,0.002678,0.000431,0.005876
14896000,0.0324,0.013523,0.002678,0.000431,0.006347
14897000,0.0324,0.013523,0.002678,0.000431,0.006582
14898000,0.0324,0.013523,0.002678,0.000431,0.005759
14899000,0.0324,0.013523,0.002678,0.000431,0.005641
14900000,0.0324,0.013523,0.002678,0.000431,0.005994
14901000,0.0324,0.013523,0.002678,0.000431,0.006464
14902000,0.0324,0.013523,0.002678,0.000431,0.007169
14903000,0.0324,0.013523,0.002678,0.000431,0.005641
14904000,0.0324,0.013523,0.002678,0.000431,0.006229
14905000,0.0324,0.013523,0.002678,0.000431,0.005994
14906000,0.0324,0.013523,0.002678,0.000431,0.006582
14907000,0.0324,0.013523,0.002678,0.000431,0.005994
14908000,0.0324,0.013523,0.002678,0.000431,0.006582
14909000,0.0324,0.013523,0.002678,0.000431,0.005994
14910000,0.0324,0.013523,0.002678,0.000431,0.006464
14911000,0.0324,0.013523,0.002678,0.000431,0.005994
14912000,0.0324,0.013523,0.002678,0.000431,0.005524
14913000,0.0324,0.013523,0.002678,0.000431,0.005994
14914000,0.0324,0.013523,0.002678,0.000431,0.006817
14915000,0.0324,0.013523,0.002678,0.000431,0.006699
14916000,0.0324,0.013523,0.002678,0.000431,0.005289
14917000,0.0324,0.013523,0.002678,0.000431,0.006934
14918000,0.0324,0.013523,0.002678,0.000431,0.006111
14919000,0.0324,0.013523,0.002678,0.000431,0.006229
14920000,0.0324,0.013523,0.002678,0.000431,0.006464
14921000,0.0324,0.013523,0.002678,0.000431,0.006699
14922000,0.0324,0.013523,0.002678,0.000431,0.006582
14923000,0.0324,0.013523,0.002678,0.000431,0.005759
14924000,0.0324,0.013523,0.002678,0.000431,0.006582
14925000,0.0324,0.013523,0.002678,0.000431,0.006347
14926000,0.0324,0.013523,0.002678,0.000431,0.005994
14927000,0.0324,0.013523,0.002678,0.000431,0.006229
14928000,0.0324,0.013523,0.002678,0.000431,0.006934
14929000,0.0324,0.013523,0.002678,0.000431,0.006464
14930000,0.0324,0.013523,0.002678,0.000431,0.006699
14931000,0.0324,0.013523,0.002678,0.000431,0.006347
14932000,0.0324,0.013523,0.002678,0.000431,0.006699
14933000,0.0324,0.013523,0.002678,0.000431,0.005289
14934000,0.0324,0.013523,0.002678,0.000431,0.007052
14935000,0.0324,0.013523,0.002678,0.000431,0.005876
14936000,0.0324,0.013523,0.002678,0.000431,0.006464
14937000,0.0324,0.013523,0.002678,0.000431,0.006464
14938000,0.0324,0.013523,0.002678,0.000431,0.005876
14939000,0.0324,0.013523,0.002678,0.000431,0.006934
14940000,0.0324,0.013523,0.002678,0.000431,0.005994
14941000,0.0324,0.013523,0.002678,0.000431,0.005994
14942000,0.0324,0.013523,0.002678,0.000431,0.007052
14943000,0.0324,0.013523,0.002678,0.000431,0.005759
14944000,0.0324,0.013523,0.002678,0.000431,0.006699
14945000,0.0324,0.013523,0.002678,0.000431,0.006111
14946000,0.0324,0.013523,0.002678,0.000431,0.006464
14947000,0.0324,0.013523,0.002678,0.000431,0.006111
14948000,0.0324,0.013523,0.002678,0.000431,0.006111
14949000,0.0324,0.013523,0.002678,0.000431,0.006582
14950000,0.0324,0.013523,0.002678,0.000431,0.005876
14951000,0.0324,0.013523,0.002678,0.000431,0.006229
14952000,0.0324,0.013523,0.002678,0.000431,0.005876
14953000,0.0324,0.013523,0.002678,0.000431,0.006111
14954000,0.0324,0.013523,0.002678,0.000431,0.006699
14955000,0.0324,0.013523,0.002678,0.000431,0.006347
14956000,0.0324,0.013523,0.002678,0.000431,0.006817
14957000,0.0324,0.013523,0.002678,0.000431,0.005994
14958000,0.0324,0.013523,0.002678,0.000431,0.005876
14959000,0.0324,0.013523,0.002678,0.000431,0.005876
14960000,0.0324,0.013523,0.002678,0.000431,0.006817
14961000,0.0324,0.013523,0.002678,0.000431,0.006111
14962000,0.0324,0.013523,0.002678,0.000431,0.007052
14963000,0.0324,0.013523,0.002678,0.000431,0.006699
14964000,0.0324,0.013523,0.002678,0.000431,0.005994
14965000,0.0324,0.013523,0.002678,0.000431,0.006582
14966000,0.0324,0.013523,0.002678,0.000431,0.007052
14967000,0.0324,0.013523,0.002678,0.000431,0.005876
14968000,0.0324,0.013523,0.002678,0.000431,0.005759
14969000,0.0324,0.013523,0.002678,0.000431,0.006582
14970000,0.0324,0.013523,0.002678,0.000431,0.006111
14971000,0.0324,0.013523,0.002678,0.000431,0.006347
14972000,0.0324,0.013523,0.002678,0.000431,0.006934
14973000,0.0324,0.013523,0.002678,0.000431,0.006111
14974000,0.0324,0.013523,0.002678,0.000431,0.005641
14975000,0.0324,0.013523,0.002678,0.000431,0.006699
14976000,0.0324,0.013523,0.002678,0.000431,0.006699
14977000,0.0324,0.013523,0.002678,0.000431,0.005994
14978000,0.0324,0.013523,0.002678,0.000431,0.005171
14979000,0.0324,0.013523,0.002678,0.000431,0.006229
14980000,0.0324,0.013523,0.002678,0.000431,0.006229
14981000,0.0324,0.013523,0.002678,0.000431,0.005289
14982000,0.0324,0.013523,0.002678,0.000431,0.006464
14983000,0.0324,0.013523,0.002678,0.000431,0.006582
14984000,0.0324,0.013523,0.002678,0.000431,0.006817
14985000,0.0324,0.013523,0.002678,0.000431,0.005524
14986000,0.0324,0.013523,0.002678,0.000431,0.006699
14987000,0.0324,0.013523,0.002678,0.000431,0.007052
14988000,0.0324,0.013523,0.002678,0.000431,0.006229
14989000,0.0324,0.013523,0.002678,0.000431,0.006229
14990000,0.0324,0.013523,0.002678,0.000431,0.006464
14991000,0.0324,0.013523,0.002678,0.000431,0.005994
14992000,0.0324,0.013523,0.002678,0.000431,0.006111
14993000,0.0324,0.013523,0.002678,0.000431,0.005994
14994000,0.0324,0.013523,0.002678,0.000431,0.005876
14995000,0.0324,0.013523,0.002678,0.000431,0.006229
14996000,0.0324,0.013523,0.002678,0.000431,0.006347
14997000,0.0324,0.013523,0.002678,0.000431,0.006817
14998000,0.0324,0.013523,0.002678,0.000431,0.006229
14999000,0.0324,0.013523,0.002678,0.000431,0.006347
