Cycle,Area(mm^2),PeakDynamic(W),SubthresholdLeakage(W),GateLeakage(W),RunTimeDynamic(W)
13000000,0.0324,0.013523,0.002678,0.000431,0.007052
13001000,0.0324,0.013523,0.002678,0.000431,0.006111
13002000,0.0324,0.013523,0.002678,0.000431,0.006699
13003000,0.0324,0.013523,0.002678,0.000431,0.006817
13004000,0.0324,0.013523,0.002678,0.000431,0.005994
13005000,0.0324,0.013523,0.002678,0.000431,0.007287
13006000,0.0324,0.013523,0.002678,0.000431,0.006347
13007000,0.0324,0.013523,0.002678,0.000431,0.006699
13008000,0.0324,0.013523,0.002678,0.000431,0.007757
13009000,0.0324,0.013523,0.002678,0.000431,0.006347
13010000,0.0324,0.013523,0.002678,0.000431,0.006934
13011000,0.0324,0.013523,0.002678,0.000431,0.007169
13012000,0.0324,0.013523,0.002678,0.000431,0.007052
13013000,0.0324,0.013523,0.002678,0.000431,0.006229
13014000,0.0324,0.013523,0.002678,0.000431,0.007404
13015000,0.0324,0.013523,0.002678,0.000431,0.007169
13016000,0.0324,0.013523,0.002678,0.000431,0.007287
13017000,0.0324,0.013523,0.002678,0.000431,0.007522
13018000,0.0324,0.013523,0.002678,0.000431,0.005876
13019000,0.0324,0.013523,0.002678,0.000431,0.007287
13020000,0.0324,0.013523,0.002678,0.000431,0.007287
13021000,0.0324,0.013523,0.002678,0.000431,0.007287
13022000,0.0324,0.013523,0.002678,0.000431,0.007404
13023000,0.0324,0.013523,0.002678,0.000431,0.007169
13024000,0.0324,0.013523,0.002678,0.000431,0.007169
13025000,0.0324,0.013523,0.002678,0.000431,0.006934
13026000,0.0324,0.013523,0.002678,0.000431,0.007052
13027000,0.0324,0.013523,0.002678,0.000431,0.006347
13028000,0.0324,0.013523,0.002678,0.000431,0.005759
13029000,0.0324,0.013523,0.002678,0.000431,0.006934
13030000,0.0324,0.013523,0.002678,0.000431,0.007052
13031000,0.0324,0.013523,0.002678,0.000431,0.006582
13032000,0.0324,0.013523,0.002678,0.000431,0.006817
13033000,0.0324,0.013523,0.002678,0.000431,0.007404
13034000,0.0324,0.013523,0.002678,0.000431,0.006817
13035000,0.0324,0.013523,0.002678,0.000431,0.006699
13036000,0.0324,0.013523,0.002678,0.000431,0.007287
13037000,0.0324,0.013523,0.002678,0.000431,0.006699
13038000,0.0324,0.013523,0.002678,0.000431,0.007874
13039000,0.0324,0.013523,0.002678,0.000431,0.006817
13040000,0.0324,0.013523,0.002678,0.000431,0.007404
13041000,0.0324,0.013523,0.002678,0.000431,0.007052
13042000,0.0324,0.013523,0.002678,0.000431,0.006817
13043000,0.0324,0.013523,0.002678,0.000431,0.007287
13044000,0.0324,0.013523,0.002678,0.000431,0.006347
13045000,0.0324,0.013523,0.002678,0.000431,0.006817
13046000,0.0324,0.013523,0.002678,0.000431,0.006934
13047000,0.0324,0.013523,0.002678,0.000431,0.007169
13048000,0.0324,0.013523,0.002678,0.000431,0.006229
13049000,0.0324,0.013523,0.002678,0.000431,0.006464
13050000,0.0324,0.013523,0.002678,0.000431,0.006934
13051000,0.0324,0.013523,0.002678,0.000431,0.007287
13052000,0.0324,0.013523,0.002678,0.000431,0.006464
13053000,0.0324,0.013523,0.002678,0.000431,0.008462
13054000,0.0324,0.013523,0.002678,0.000431,0.007287
13055000,0.0324,0.013523,0.002678,0.000431,0.007404
13056000,0.0324,0.013523,0.002678,0.000431,0.007287
13057000,0.0324,0.013523,0.002678,0.000431,0.006582
13058000,0.0324,0.013523,0.002678,0.000431,0.006934
13059000,0.0324,0.013523,0.002678,0.000431,0.006582
13060000,0.0324,0.013523,0.002678,0.000431,0.007639
13061000,0.0324,0.013523,0.002678,0.000431,0.007169
13062000,0.0324,0.013523,0.002678,0.000431,0.007287
13063000,0.0324,0.013523,0.002678,0.000431,0.006934
13064000,0.0324,0.013523,0.002678,0.000431,0.007052
13065000,0.0324,0.013523,0.002678,0.000431,0.007052
13066000,0.0324,0.013523,0.002678,0.000431,0.007757
13067000,0.0324,0.013523,0.002678,0.000431,0.006111
13068000,0.0324,0.013523,0.002678,0.000431,0.006817
13069000,0.0324,0.013523,0.002678,0.000431,0.007169
13070000,0.0324,0.013523,0.002678,0.000431,0.008109
13071000,0.0324,0.013523,0.002678,0.000431,0.006111
13072000,0.0324,0.013523,0.002678,0.000431,0.007404
13073000,0.0324,0.013523,0.002678,0.000431,0.006817
13074000,0.0324,0.013523,0.002678,0.000431,0.007052
13075000,0.0324,0.013523,0.002678,0.000431,0.007052
13076000,0.0324,0.013523,0.002678,0.000431,0.007169
13077000,0.0324,0.013523,0.002678,0.000431,0.006582
13078000,0.0324,0.013523,0.002678,0.000431,0.005994
13079000,0.0324,0.013523,0.002678,0.000431,0.006582
13080000,0.0324,0.013523,0.002678,0.000431,0.008227
13081000,0.0324,0.013523,0.002678,0.000431,0.007287
13082000,0.0324,0.013523,0.002678,0.000431,0.007169
13083000,0.0324,0.013523,0.002678,0.000431,0.007404
13084000,0.0324,0.013523,0.002678,0.000431,0.007169
13085000,0.0324,0.013523,0.002678,0.000431,0.006464
13086000,0.0324,0.013523,0.002678,0.000431,0.006934
13087000,0.0324,0.013523,0.002678,0.000431,0.007169
13088000,0.0324,0.013523,0.002678,0.000431,0.006582
13089000,0.0324,0.013523,0.002678,0.000431,0.007052
13090000,0.0324,0.013523,0.002678,0.000431,0.007052
13091000,0.0324,0.013523,0.002678,0.000431,0.006934
13092000,0.0324,0.013523,0.002678,0.000431,0.007287
13093000,0.0324,0.013523,0.002678,0.000431,0.006934
13094000,0.0324,0.013523,0.002678,0.000431,0.007287
13095000,0.0324,0.013523,0.002678,0.000431,0.007287
13096000,0.0324,0.013523,0.002678,0.000431,0.006934
13097000,0.0324,0.013523,0.002678,0.000431,0.007404
13098000,0.0324,0.013523,0.002678,0.000431,0.007522
13099000,0.0324,0.013523,0.002678,0.000431,0.007169
13100000,0.0324,0.013523,0.002678,0.000431,0.006699
13101000,0.0324,0.013523,0.002678,0.000431,0.007169
13102000,0.0324,0.013523,0.002678,0.000431,0.006582
13103000,0.0324,0.013523,0.002678,0.000431,0.006817
13104000,0.0324,0.013523,0.002678,0.000431,0.007287
13105000,0.0324,0.013523,0.002678,0.000431,0.006934
13106000,0.0324,0.013523,0.002678,0.000431,0.007169
13107000,0.0324,0.013523,0.002678,0.000431,0.007992
13108000,0.0324,0.013523,0.002678,0.000431,0.007052
13109000,0.0324,0.013523,0.002678,0.000431,0.006464
13110000,0.0324,0.013523,0.002678,0.000431,0.006464
13111000,0.0324,0.013523,0.002678,0.000431,0.007404
13112000,0.0324,0.013523,0.002678,0.000431,0.006699
13113000,0.0324,0.013523,0.002678,0.000431,0.006699
13114000,0.0324,0.013523,0.002678,0.000431,0.006934
13115000,0.0324,0.013523,0.002678,0.000431,0.006934
13116000,0.0324,0.013523,0.002678,0.000431,0.006464
13117000,0.0324,0.013523,0.002678,0.000431,0.007052
13118000,0.0324,0.013523,0.002678,0.000431,0.007522
13119000,0.0324,0.013523,0.002678,0.000431,0.006699
13120000,0.0324,0.013523,0.002678,0.000431,0.006464
13121000,0.0324,0.013523,0.002678,0.000431,0.007757
13122000,0.0324,0.013523,0.002678,0.000431,0.007287
13123000,0.0324,0.013523,0.002678,0.000431,0.007287
13124000,0.0324,0.013523,0.002678,0.000431,0.006934
13125000,0.0324,0.013523,0.002678,0.000431,0.007639
13126000,0.0324,0.013523,0.002678,0.000431,0.007052
13127000,0.0324,0.013523,0.002678,0.000431,0.007522
13128000,0.0324,0.013523,0.002678,0.000431,0.007522
13129000,0.0324,0.013523,0.002678,0.000431,0.006347
13130000,0.0324,0.013523,0.002678,0.000431,0.006817
13131000,0.0324,0.013523,0.002678,0.000431,0.006934
13132000,0.0324,0.013523,0.002678,0.000431,0.006699
13133000,0.0324,0.013523,0.002678,0.000431,0.007404
13134000,0.0324,0.013523,0.002678,0.000431,0.007757
13135000,0.0324,0.013523,0.002678,0.000431,0.006699
13136000,0.0324,0.013523,0.002678,0.000431,0.007404
13137000,0.0324,0.013523,0.002678,0.000431,0.007169
13138000,0.0324,0.013523,0.002678,0.000431,0.005641
13139000,0.0324,0.013523,0.002678,0.000431,0.007169
13140000,0.0324,0.013523,0.002678,0.000431,0.007992
13141000,0.0324,0.013523,0.002678,0.000431,0.006934
13142000,0.0324,0.013523,0.002678,0.000431,0.007169
13143000,0.0324,0.013523,0.002678,0.000431,0.006817
13144000,0.0324,0.013523,0.002678,0.000431,0.006699
13145000,0.0324,0.013523,0.002678,0.000431,0.007404
13146000,0.0324,0.013523,0.002678,0.000431,0.006699
13147000,0.0324,0.013523,0.002678,0.000431,0.007287
13148000,0.0324,0.013523,0.002678,0.000431,0.007052
13149000,0.0324,0.013523,0.002678,0.000431,0.006934
13150000,0.0324,0.013523,0.002678,0.000431,0.007287
13151000,0.0324,0.013523,0.002678,0.000431,0.007052
13152000,0.0324,0.013523,0.002678,0.000431,0.006229
13153000,0.0324,0.013523,0.002678,0.000431,0.007052
13154000,0.0324,0.013523,0.002678,0.000431,0.006582
13155000,0.0324,0.013523,0.002678,0.000431,0.006934
13156000,0.0324,0.013523,0.002678,0.000431,0.007522
13157000,0.0324,0.013523,0.002678,0.000431,0.006817
13158000,0.0324,0.013523,0.002678,0.000431,0.007404
13159000,0.0324,0.013523,0.002678,0.000431,0.006817
13160000,0.0324,0.013523,0.002678,0.000431,0.007169
13161000,0.0324,0.013523,0.002678,0.000431,0.006229
13162000,0.0324,0.013523,0.002678,0.000431,0.007169
13163000,0.0324,0.013523,0.002678,0.000431,0.007757
13164000,0.0324,0.013523,0.002678,0.000431,0.006817
13165000,0.0324,0.013523,0.002678,0.000431,0.006582
13166000,0.0324,0.013523,0.002678,0.000431,0.007639
13167000,0.0324,0.013523,0.002678,0.000431,0.006934
13168000,0.0324,0.013523,0.002678,0.000431,0.006347
13169000,0.0324,0.013523,0.002678,0.000431,0.007052
13170000,0.0324,0.013523,0.002678,0.000431,0.007992
13171000,0.0324,0.013523,0.002678,0.000431,0.005759
13172000,0.0324,0.013523,0.002678,0.000431,0.007404
13173000,0.0324,0.013523,0.002678,0.000431,0.007874
13174000,0.0324,0.013523,0.002678,0.000431,0.006111
13175000,0.0324,0.013523,0.002678,0.000431,0.007169
13176000,0.0324,0.013523,0.002678,0.000431,0.006817
13177000,0.0324,0.013523,0.002678,0.000431,0.006817
13178000,0.0324,0.013523,0.002678,0.000431,0.007522
13179000,0.0324,0.013523,0.002678,0.000431,0.006934
13180000,0.0324,0.013523,0.002678,0.000431,0.007169
13181000,0.0324,0.013523,0.002678,0.000431,0.006347
13182000,0.0324,0.013523,0.002678,0.000431,0.006934
13183000,0.0324,0.013523,0.002678,0.000431,0.007757
13184000,0.0324,0.013523,0.002678,0.000431,0.006699
13185000,0.0324,0.013523,0.002678,0.000431,0.006934
13186000,0.0324,0.013523,0.002678,0.000431,0.007522
13187000,0.0324,0.013523,0.002678,0.000431,0.006699
13188000,0.0324,0.013523,0.002678,0.000431,0.006229
13189000,0.0324,0.013523,0.002678,0.000431,0.007404
13190000,0.0324,0.013523,0.002678,0.000431,0.007287
13191000,0.0324,0.013523,0.002678,0.000431,0.006817
13192000,0.0324,0.013523,0.002678,0.000431,0.007522
13193000,0.0324,0.013523,0.002678,0.000431,0.006229
13194000,0.0324,0.013523,0.002678,0.000431,0.006934
13195000,0.0324,0.013523,0.002678,0.000431,0.007169
13196000,0.0324,0.013523,0.002678,0.000431,0.007522
13197000,0.0324,0.013523,0.002678,0.000431,0.006464
13198000,0.0324,0.013523,0.002678,0.000431,0.006464
13199000,0.0324,0.013523,0.002678,0.000431,0.006934
13200000,0.0324,0.013523,0.002678,0.000431,0.007757
13201000,0.0324,0.013523,0.002678,0.000431,0.007052
13202000,0.0324,0.013523,0.002678,0.000431,0.006817
13203000,0.0324,0.013523,0.002678,0.000431,0.007404
13204000,0.0324,0.013523,0.002678,0.000431,0.006817
13205000,0.0324,0.013523,0.002678,0.000431,0.007052
13206000,0.0324,0.013523,0.002678,0.000431,0.006699
13207000,0.0324,0.013523,0.002678,0.000431,0.008109
13208000,0.0324,0.013523,0.002678,0.000431,0.007169
13209000,0.0324,0.013523,0.002678,0.000431,0.007522
13210000,0.0324,0.013523,0.002678,0.000431,0.006347
13211000,0.0324,0.013523,0.002678,0.000431,0.007169
13212000,0.0324,0.013523,0.002678,0.000431,0.007052
13213000,0.0324,0.013523,0.002678,0.000431,0.007169
13214000,0.0324,0.013523,0.002678,0.000431,0.006464
13215000,0.0324,0.013523,0.002678,0.000431,0.006347
13216000,0.0324,0.013523,0.002678,0.000431,0.006347
13217000,0.0324,0.013523,0.002678,0.000431,0.007287
13218000,0.0324,0.013523,0.002678,0.000431,0.006111
13219000,0.0324,0.013523,0.002678,0.000431,0.007169
13220000,0.0324,0.013523,0.002678,0.000431,0.006582
13221000,0.0324,0.013523,0.002678,0.000431,0.007169
13222000,0.0324,0.013523,0.002678,0.000431,0.006347
13223000,0.0324,0.013523,0.002678,0.000431,0.007404
13224000,0.0324,0.013523,0.002678,0.000431,0.007052
13225000,0.0324,0.013523,0.002678,0.000431,0.006464
13226000,0.0324,0.013523,0.002678,0.000431,0.007404
13227000,0.0324,0.013523,0.002678,0.000431,0.006582
13228000,0.0324,0.013523,0.002678,0.000431,0.006582
13229000,0.0324,0.013523,0.002678,0.000431,0.007522
13230000,0.0324,0.013523,0.002678,0.000431,0.007287
13231000,0.0324,0.013523,0.002678,0.000431,0.007052
13232000,0.0324,0.013523,0.002678,0.000431,0.007992
13233000,0.0324,0.013523,0.002678,0.000431,0.006582
13234000,0.0324,0.013523,0.002678,0.000431,0.007639
13235000,0.0324,0.013523,0.002678,0.000431,0.007052
13236000,0.0324,0.013523,0.002678,0.000431,0.005876
13237000,0.0324,0.013523,0.002678,0.000431,0.007757
13238000,0.0324,0.013523,0.002678,0.000431,0.007639
13239000,0.0324,0.013523,0.002678,0.000431,0.006934
13240000,0.0324,0.013523,0.002678,0.000431,0.006934
13241000,0.0324,0.013523,0.002678,0.000431,0.006464
13242000,0.0324,0.013523,0.002678,0.000431,0.007052
13243000,0.0324,0.013523,0.002678,0.000431,0.007052
13244000,0.0324,0.013523,0.002678,0.000431,0.007992
13245000,0.0324,0.013523,0.002678,0.000431,0.006582
13246000,0.0324,0.013523,0.002678,0.000431,0.007639
13247000,0.0324,0.013523,0.002678,0.000431,0.006347
13248000,0.0324,0.013523,0.002678,0.000431,0.007757
13249000,0.0324,0.013523,0.002678,0.000431,0.006699
13250000,0.0324,0.013523,0.002678,0.000431,0.006699
13251000,0.0324,0.013523,0.002678,0.000431,0.007874
13252000,0.0324,0.013523,0.002678,0.000431,0.006582
13253000,0.0324,0.013523,0.002678,0.000431,0.007169
13254000,0.0324,0.013523,0.002678,0.000431,0.007639
13255000,0.0324,0.013523,0.002678,0.000431,0.006934
13256000,0.0324,0.013523,0.002678,0.000431,0.007404
13257000,0.0324,0.013523,0.002678,0.000431,0.006934
13258000,0.0324,0.013523,0.002678,0.000431,0.006817
13259000,0.0324,0.013523,0.002678,0.000431,0.007052
13260000,0.0324,0.013523,0.002678,0.000431,0.006817
13261000,0.0324,0.013523,0.002678,0.000431,0.007639
13262000,0.0324,0.013523,0.002678,0.000431,0.007287
13263000,0.0324,0.013523,0.002678,0.000431,0.007052
13264000,0.0324,0.013523,0.002678,0.000431,0.006934
13265000,0.0324,0.013523,0.002678,0.000431,0.007522
13266000,0.0324,0.013523,0.002678,0.000431,0.006699
13267000,0.0324,0.013523,0.002678,0.000431,0.007169
13268000,0.0324,0.013523,0.002678,0.000431,0.006934
13269000,0.0324,0.013523,0.002678,0.000431,0.006111
13270000,0.0324,0.013523,0.002678,0.000431,0.007522
13271000,0.0324,0.013523,0.002678,0.000431,0.006934
13272000,0.0324,0.013523,0.002678,0.000431,0.007052
13273000,0.0324,0.013523,0.002678,0.000431,0.006934
13274000,0.0324,0.013523,0.002678,0.000431,0.007052
13275000,0.0324,0.013523,0.002678,0.000431,0.006934
13276000,0.0324,0.013523,0.002678,0.000431,0.005994
13277000,0.0324,0.013523,0.002678,0.000431,0.008227
13278000,0.0324,0.013523,0.002678,0.000431,0.006229
13279000,0.0324,0.013523,0.002678,0.000431,0.007287
13280000,0.0324,0.013523,0.002678,0.000431,0.007287
13281000,0.0324,0.013523,0.002678,0.000431,0.007052
13282000,0.0324,0.013523,0.002678,0.000431,0.007169
13283000,0.0324,0.013523,0.002678,0.000431,0.006229
13284000,0.0324,0.013523,0.002678,0.000431,0.007052
13285000,0.0324,0.013523,0.002678,0.000431,0.007169
13286000,0.0324,0.013523,0.002678,0.000431,0.006582
13287000,0.0324,0.013523,0.002678,0.000431,0.007404
13288000,0.0324,0.013523,0.002678,0.000431,0.007052
13289000,0.0324,0.013523,0.002678,0.000431,0.007639
13290000,0.0324,0.013523,0.002678,0.000431,0.006229
13291000,0.0324,0.013523,0.002678,0.000431,0.007287
13292000,0.0324,0.013523,0.002678,0.000431,0.006817
13293000,0.0324,0.013523,0.002678,0.000431,0.006934
13294000,0.0324,0.013523,0.002678,0.000431,0.007052
13295000,0.0324,0.013523,0.002678,0.000431,0.007052
13296000,0.0324,0.013523,0.002678,0.000431,0.007874
13297000,0.0324,0.013523,0.002678,0.000431,0.007874
13298000,0.0324,0.013523,0.002678,0.000431,0.007287
13299000,0.0324,0.013523,0.002678,0.000431,0.007404
13300000,0.0324,0.013523,0.002678,0.000431,0.007287
13301000,0.0324,0.013523,0.002678,0.000431,0.005994
13302000,0.0324,0.013523,0.002678,0.000431,0.006582
13303000,0.0324,0.013523,0.002678,0.000431,0.008109
13304000,0.0324,0.013523,0.002678,0.000431,0.007757
13305000,0.0324,0.013523,0.002678,0.000431,0.007169
13306000,0.0324,0.013523,0.002678,0.000431,0.007992
13307000,0.0324,0.013523,0.002678,0.000431,0.007287
13308000,0.0324,0.013523,0.002678,0.000431,0.006464
13309000,0.0324,0.013523,0.002678,0.000431,0.007052
13310000,0.0324,0.013523,0.002678,0.000431,0.007639
13311000,0.0324,0.013523,0.002678,0.000431,0.006347
13312000,0.0324,0.013523,0.002678,0.000431,0.006582
13313000,0.0324,0.013523,0.002678,0.000431,0.006934
13314000,0.0324,0.013523,0.002678,0.000431,0.006111
13315000,0.0324,0.013523,0.002678,0.000431,0.007052
13316000,0.0324,0.013523,0.002678,0.000431,0.006934
13317000,0.0324,0.013523,0.002678,0.000431,0.006582
13318000,0.0324,0.013523,0.002678,0.000431,0.007169
13319000,0.0324,0.013523,0.002678,0.000431,0.006934
13320000,0.0324,0.013523,0.002678,0.000431,0.007757
13321000,0.0324,0.013523,0.002678,0.000431,0.006934
13322000,0.0324,0.013523,0.002678,0.000431,0.006817
13323000,0.0324,0.013523,0.002678,0.000431,0.007522
13324000,0.0324,0.013523,0.002678,0.000431,0.007169
13325000,0.0324,0.013523,0.002678,0.000431,0.006934
13326000,0.0324,0.013523,0.002678,0.000431,0.007287
13327000,0.0324,0.013523,0.002678,0.000431,0.007169
13328000,0.0324,0.013523,0.002678,0.000431,0.007404
13329000,0.0324,0.013523,0.002678,0.000431,0.006817
13330000,0.0324,0.013523,0.002678,0.000431,0.007287
13331000,0.0324,0.013523,0.002678,0.000431,0.007169
13332000,0.0324,0.013523,0.002678,0.000431,0.007287
13333000,0.0324,0.013523,0.002678,0.000431,0.007522
13334000,0.0324,0.013523,0.002678,0.000431,0.007052
13335000,0.0324,0.013523,0.002678,0.000431,0.006817
13336000,0.0324,0.013523,0.002678,0.000431,0.006934
13337000,0.0324,0.013523,0.002678,0.000431,0.006699
13338000,0.0324,0.013523,0.002678,0.000431,0.007404
13339000,0.0324,0.013523,0.002678,0.000431,0.006347
13340000,0.0324,0.013523,0.002678,0.000431,0.006934
13341000,0.0324,0.013523,0.002678,0.000431,0.007052
13342000,0.0324,0.013523,0.002678,0.000431,0.006817
13343000,0.0324,0.013523,0.002678,0.000431,0.007404
13344000,0.0324,0.013523,0.002678,0.000431,0.007757
13345000,0.0324,0.013523,0.002678,0.000431,0.007522
13346000,0.0324,0.013523,0.002678,0.000431,0.007639
13347000,0.0324,0.013523,0.002678,0.000431,0.007052
13348000,0.0324,0.013523,0.002678,0.000431,0.007287
13349000,0.0324,0.013523,0.002678,0.000431,0.006464
13350000,0.0324,0.013523,0.002678,0.000431,0.006934
13351000,0.0324,0.013523,0.002678,0.000431,0.006464
13352000,0.0324,0.013523,0.002678,0.000431,0.007522
13353000,0.0324,0.013523,0.002678,0.000431,0.006699
13354000,0.0324,0.013523,0.002678,0.000431,0.007052
13355000,0.0324,0.013523,0.002678,0.000431,0.006464
13356000,0.0324,0.013523,0.002678,0.000431,0.007522
13357000,0.0324,0.013523,0.002678,0.000431,0.006582
13358000,0.0324,0.013523,0.002678,0.000431,0.007874
13359000,0.0324,0.013523,0.002678,0.000431,0.007052
13360000,0.0324,0.013523,0.002678,0.000431,0.006934
13361000,0.0324,0.013523,0.002678,0.000431,0.007169
13362000,0.0324,0.013523,0.002678,0.000431,0.007992
13363000,0.0324,0.013523,0.002678,0.000431,0.006464
13364000,0.0324,0.013523,0.002678,0.000431,0.006582
13365000,0.0324,0.013523,0.002678,0.000431,0.007522
13366000,0.0324,0.013523,0.002678,0.000431,0.007052
13367000,0.0324,0.013523,0.002678,0.000431,0.006464
13368000,0.0324,0.013523,0.002678,0.000431,0.007052
13369000,0.0324,0.013523,0.002678,0.000431,0.006934
13370000,0.0324,0.013523,0.002678,0.000431,0.006934
13371000,0.0324,0.013523,0.002678,0.000431,0.008697
13372000,0.0324,0.013523,0.002678,0.000431,0.006934
13373000,0.0324,0.013523,0.002678,0.000431,0.006934
13374000,0.0324,0.013523,0.002678,0.000431,0.006817
13375000,0.0324,0.013523,0.002678,0.000431,0.007522
13376000,0.0324,0.013523,0.002678,0.000431,0.006582
13377000,0.0324,0.013523,0.002678,0.000431,0.005876
13378000,0.0324,0.013523,0.002678,0.000431,0.006582
13379000,0.0324,0.013523,0.002678,0.000431,0.006229
13380000,0.0324,0.013523,0.002678,0.000431,0.006817
13381000,0.0324,0.013523,0.002678,0.000431,0.006699
13382000,0.0324,0.013523,0.002678,0.000431,0.006229
13383000,0.0324,0.013523,0.002678,0.000431,0.006817
13384000,0.0324,0.013523,0.002678,0.000431,0.006464
13385000,0.0324,0.013523,0.002678,0.000431,0.007404
13386000,0.0324,0.013523,0.002678,0.000431,0.006347
13387000,0.0324,0.013523,0.002678,0.000431,0.006699
13388000,0.0324,0.013523,0.002678,0.000431,0.006347
13389000,0.0324,0.013523,0.002678,0.000431,0.006817
13390000,0.0324,0.013523,0.002678,0.000431,0.006699
13391000,0.0324,0.013523,0.002678,0.000431,0.007052
13392000,0.0324,0.013523,0.002678,0.000431,0.006111
13393000,0.0324,0.013523,0.002678,0.000431,0.006582
13394000,0.0324,0.013523,0.002678,0.000431,0.006111
13395000,0.0324,0.013523,0.002678,0.000431,0.006817
13396000,0.0324,0.013523,0.002678,0.000431,0.006347
13397000,0.0324,0.013523,0.002678,0.000431,0.007052
13398000,0.0324,0.013523,0.002678,0.000431,0.005876
13399000,0.0324,0.013523,0.002678,0.000431,0.006111
13400000,0.0324,0.013523,0.002678,0.000431,0.006464
13401000,0.0324,0.013523,0.002678,0.000431,0.006699
13402000,0.0324,0.013523,0.002678,0.000431,0.006699
13403000,0.0324,0.013523,0.002678,0.000431,0.006464
13404000,0.0324,0.013523,0.002678,0.000431,0.006347
13405000,0.0324,0.013523,0.002678,0.000431,0.006464
13406000,0.0324,0.013523,0.002678,0.000431,0.006229
13407000,0.0324,0.013523,0.002678,0.000431,0.006934
13408000,0.0324,0.013523,0.002678,0.000431,0.005876
13409000,0.0324,0.013523,0.002678,0.000431,0.007287
13410000,0.0324,0.013523,0.002678,0.000431,0.006111
13411000,0.0324,0.013523,0.002678,0.000431,0.006582
13412000,0.0324,0.013523,0.002678,0.000431,0.006347
13413000,0.0324,0.013523,0.002678,0.000431,0.005876
13414000,0.0324,0.013523,0.002678,0.000431,0.006464
13415000,0.0324,0.013523,0.002678,0.000431,0.006229
13416000,0.0324,0.013523,0.002678,0.000431,0.005759
13417000,0.0324,0.013523,0.002678,0.000431,0.006699
13418000,0.0324,0.013523,0.002678,0.000431,0.006464
13419000,0.0324,0.013523,0.002678,0.000431,0.006817
13420000,0.0324,0.013523,0.002678,0.000431,0.006817
13421000,0.0324,0.013523,0.002678,0.000431,0.006347
13422000,0.0324,0.013523,0.002678,0.000431,0.006817
13423000,0.0324,0.013523,0.002678,0.000431,0.006464
13424000,0.0324,0.013523,0.002678,0.000431,0.006934
13425000,0.0324,0.013523,0.002678,0.000431,0.007169
13426000,0.0324,0.013523,0.002678,0.000431,0.007169
13427000,0.0324,0.013523,0.002678,0.000431,0.005994
13428000,0.0324,0.013523,0.002678,0.000431,0.007404
13429000,0.0324,0.013523,0.002678,0.000431,0.006817
13430000,0.0324,0.013523,0.002678,0.000431,0.006934
13431000,0.0324,0.013523,0.002678,0.000431,0.005994
13432000,0.0324,0.013523,0.002678,0.000431,0.006582
13433000,0.0324,0.013523,0.002678,0.000431,0.006817
13434000,0.0324,0.013523,0.002678,0.000431,0.006582
13435000,0.0324,0.013523,0.002678,0.000431,0.006229
13436000,0.0324,0.013523,0.002678,0.000431,0.007169
13437000,0.0324,0.013523,0.002678,0.000431,0.007169
13438000,0.0324,0.013523,0.002678,0.000431,0.006111
13439000,0.0324,0.013523,0.002678,0.000431,0.006582
13440000,0.0324,0.013523,0.002678,0.000431,0.006934
13441000,0.0324,0.013523,0.002678,0.000431,0.006111
13442000,0.0324,0.013523,0.002678,0.000431,0.005876
13443000,0.0324,0.013523,0.002678,0.000431,0.007757
13444000,0.0324,0.013523,0.002678,0.000431,0.005994
13445000,0.0324,0.013523,0.002678,0.000431,0.006111
13446000,0.0324,0.013523,0.002678,0.000431,0.007169
13447000,0.0324,0.013523,0.002678,0.000431,0.006347
13448000,0.0324,0.013523,0.002678,0.000431,0.006582
13449000,0.0324,0.013523,0.002678,0.000431,0.005994
13450000,0.0324,0.013523,0.002678,0.000431,0.006347
13451000,0.0324,0.013523,0.002678,0.000431,0.006582
13452000,0.0324,0.013523,0.002678,0.000431,0.005994
13453000,0.0324,0.013523,0.002678,0.000431,0.006464
13454000,0.0324,0.013523,0.002678,0.000431,0.006229
13455000,0.0324,0.013523,0.002678,0.000431,0.005406
13456000,0.0324,0.013523,0.002678,0.000431,0.006347
13457000,0.0324,0.013523,0.002678,0.000431,0.006229
13458000,0.0324,0.013523,0.002678,0.000431,0.006817
13459000,0.0324,0.013523,0.002678,0.000431,0.006699
13460000,0.0324,0.013523,0.002678,0.000431,0.006582
13461000,0.0324,0.013523,0.002678,0.000431,0.005759
13462000,0.0324,0.013523,0.002678,0.000431,0.006111
13463000,0.0324,0.013523,0.002678,0.000431,0.006817
13464000,0.0324,0.013523,0.002678,0.000431,0.005759
13465000,0.0324,0.013523,0.002678,0.000431,0.005876
13466000,0.0324,0.013523,0.002678,0.000431,0.005994
13467000,0.0324,0.013523,0.002678,0.000431,0.007522
13468000,0.0324,0.013523,0.002678,0.000431,0.006582
13469000,0.0324,0.013523,0.002678,0.000431,0.006582
13470000,0.0324,0.013523,0.002678,0.000431,0.006582
13471000,0.0324,0.013523,0.002678,0.000431,0.006817
13472000,0.0324,0.013523,0.002678,0.000431,0.005759
13473000,0.0324,0.013523,0.002678,0.000431,0.007169
13474000,0.0324,0.013523,0.002678,0.000431,0.006699
13475000,0.0324,0.013523,0.002678,0.000431,0.007169
13476000,0.0324,0.013523,0.002678,0.000431,0.005994
13477000,0.0324,0.013523,0.002678,0.000431,0.006464
13478000,0.0324,0.013523,0.002678,0.000431,0.006699
13479000,0.0324,0.013523,0.002678,0.000431,0.005994
13480000,0.0324,0.013523,0.002678,0.000431,0.006934
13481000,0.0324,0.013523,0.002678,0.000431,0.006111
13482000,0.0324,0.013523,0.002678,0.000431,0.006817
13483000,0.0324,0.013523,0.002678,0.000431,0.006699
13484000,0.0324,0.013523,0.002678,0.000431,0.006699
13485000,0.0324,0.013523,0.002678,0.000431,0.006347
13486000,0.0324,0.013523,0.002678,0.000431,0.006347
13487000,0.0324,0.013523,0.002678,0.000431,0.006464
13488000,0.0324,0.013523,0.002678,0.000431,0.005876
13489000,0.0324,0.013523,0.002678,0.000431,0.006699
13490000,0.0324,0.013523,0.002678,0.000431,0.005289
13491000,0.0324,0.013523,0.002678,0.000431,0.006347
13492000,0.0324,0.013523,0.002678,0.000431,0.005876
13493000,0.0324,0.013523,0.002678,0.000431,0.006699
13494000,0.0324,0.013523,0.002678,0.000431,0.006699
13495000,0.0324,0.013523,0.002678,0.000431,0.006464
13496000,0.0324,0.013523,0.002678,0.000431,0.006817
13497000,0.0324,0.013523,0.002678,0.000431,0.005994
13498000,0.0324,0.013523,0.002678,0.000431,0.005994
13499000,0.0324,0.013523,0.002678,0.000431,0.005876
13500000,0.0324,0.013523,0.002678,0.000431,0.006347
13501000,0.0324,0.013523,0.002678,0.000431,0.006699
13502000,0.0324,0.013523,0.002678,0.000431,0.006817
13503000,0.0324,0.013523,0.002678,0.000431,0.005641
13504000,0.0324,0.013523,0.002678,0.000431,0.005759
13505000,0.0324,0.013523,0.002678,0.000431,0.006817
13506000,0.0324,0.013523,0.002678,0.000431,0.006464
13507000,0.0324,0.013523,0.002678,0.000431,0.005641
13508000,0.0324,0.013523,0.002678,0.000431,0.006582
13509000,0.0324,0.013523,0.002678,0.000431,0.006699
13510000,0.0324,0.013523,0.002678,0.000431,0.005876
13511000,0.0324,0.013523,0.002678,0.000431,0.006464
13512000,0.0324,0.013523,0.002678,0.000431,0.007287
13513000,0.0324,0.013523,0.002678,0.000431,0.006229
13514000,0.0324,0.013523,0.002678,0.000431,0.005524
13515000,0.0324,0.013523,0.002678,0.000431,0.007169
13516000,0.0324,0.013523,0.002678,0.000431,0.006111
13517000,0.0324,0.013523,0.002678,0.000431,0.006934
13518000,0.0324,0.013523,0.002678,0.000431,0.006111
13519000,0.0324,0.013523,0.002678,0.000431,0.006111
13520000,0.0324,0.013523,0.002678,0.000431,0.006229
13521000,0.0324,0.013523,0.002678,0.000431,0.006347
13522000,0.0324,0.013523,0.002678,0.000431,0.007287
13523000,0.0324,0.013523,0.002678,0.000431,0.006934
13524000,0.0324,0.013523,0.002678,0.000431,0.006229
13525000,0.0324,0.013523,0.002678,0.000431,0.006934
13526000,0.0324,0.013523,0.002678,0.000431,0.006934
13527000,0.0324,0.013523,0.002678,0.000431,0.006347
13528000,0.0324,0.013523,0.002678,0.000431,0.006699
13529000,0.0324,0.013523,0.002678,0.000431,0.006934
13530000,0.0324,0.013523,0.002678,0.000431,0.006582
13531000,0.0324,0.013523,0.002678,0.000431,0.005994
13532000,0.0324,0.013523,0.002678,0.000431,0.006934
13533000,0.0324,0.013523,0.002678,0.000431,0.006347
13534000,0.0324,0.013523,0.002678,0.000431,0.006111
13535000,0.0324,0.013523,0.002678,0.000431,0.006464
13536000,0.0324,0.013523,0.002678,0.000431,0.006699
13537000,0.0324,0.013523,0.002678,0.000431,0.006699
13538000,0.0324,0.013523,0.002678,0.000431,0.006934
13539000,0.0324,0.013523,0.002678,0.000431,0.006582
13540000,0.0324,0.013523,0.002678,0.000431,0.006699
13541000,0.0324,0.013523,0.002678,0.000431,0.006699
13542000,0.0324,0.013523,0.002678,0.000431,0.006817
13543000,0.0324,0.013523,0.002678,0.000431,0.006699
13544000,0.0324,0.013523,0.002678,0.000431,0.005994
13545000,0.0324,0.013523,0.002678,0.000431,0.007052
13546000,0.0324,0.013523,0.002678,0.000431,0.006934
13547000,0.0324,0.013523,0.002678,0.000431,0.007287
13548000,0.0324,0.013523,0.002678,0.000431,0.006582
13549000,0.0324,0.013523,0.002678,0.000431,0.006934
13550000,0.0324,0.013523,0.002678,0.000431,0.006111
13551000,0.0324,0.013523,0.002678,0.000431,0.006934
13552000,0.0324,0.013523,0.002678,0.000431,0.006347
13553000,0.0324,0.013523,0.002678,0.000431,0.007052
13554000,0.0324,0.013523,0.002678,0.000431,0.006464
13555000,0.0324,0.013523,0.002678,0.000431,0.006699
13556000,0.0324,0.013523,0.002678,0.000431,0.006464
13557000,0.0324,0.013523,0.002678,0.000431,0.006464
13558000,0.0324,0.013523,0.002678,0.000431,0.006817
13559000,0.0324,0.013523,0.002678,0.000431,0.006699
13560000,0.0324,0.013523,0.002678,0.000431,0.006817
13561000,0.0324,0.013523,0.002678,0.000431,0.006817
13562000,0.0324,0.013523,0.002678,0.000431,0.006347
13563000,0.0324,0.013523,0.002678,0.000431,0.007287
13564000,0.0324,0.013523,0.002678,0.000431,0.005994
13565000,0.0324,0.013523,0.002678,0.000431,0.007052
13566000,0.0324,0.013523,0.002678,0.000431,0.006699
13567000,0.0324,0.013523,0.002678,0.000431,0.006347
13568000,0.0324,0.013523,0.002678,0.000431,0.006699
13569000,0.0324,0.013523,0.002678,0.000431,0.006464
13570000,0.0324,0.013523,0.002678,0.000431,0.006464
13571000,0.0324,0.013523,0.002678,0.000431,0.006817
13572000,0.0324,0.013523,0.002678,0.000431,0.006347
13573000,0.0324,0.013523,0.002678,0.000431,0.006817
13574000,0.0324,0.013523,0.002678,0.000431,0.007522
13575000,0.0324,0.013523,0.002678,0.000431,0.007052
13576000,0.0324,0.013523,0.002678,0.000431,0.005406
13577000,0.0324,0.013523,0.002678,0.000431,0.006229
13578000,0.0324,0.013523,0.002678,0.000431,0.005876
13579000,0.0324,0.013523,0.002678,0.000431,0.005994
13580000,0.0324,0.013523,0.002678,0.000431,0.006582
13581000,0.0324,0.013523,0.002678,0.000431,0.006347
13582000,0.0324,0.013523,0.002678,0.000431,0.006699
13583000,0.0324,0.013523,0.002678,0.000431,0.007052
13584000,0.0324,0.013523,0.002678,0.000431,0.006582
13585000,0.0324,0.013523,0.002678,0.000431,0.005759
13586000,0.0324,0.013523,0.002678,0.000431,0.006817
13587000,0.0324,0.013523,0.002678,0.000431,0.006582
13588000,0.0324,0.013523,0.002678,0.000431,0.006111
13589000,0.0324,0.013523,0.002678,0.000431,0.007169
13590000,0.0324,0.013523,0.002678,0.000431,0.006934
13591000,0.0324,0.013523,0.002678,0.000431,0.006582
13592000,0.0324,0.013523,0.002678,0.000431,0.007052
13593000,0.0324,0.013523,0.002678,0.000431,0.007639
13594000,0.0324,0.013523,0.002678,0.000431,0.006934
13595000,0.0324,0.013523,0.002678,0.000431,0.005641
13596000,0.0324,0.013523,0.002678,0.000431,0.006464
13597000,0.0324,0.013523,0.002678,0.000431,0.006111
13598000,0.0324,0.013523,0.002678,0.000431,0.006699
13599000,0.0324,0.013523,0.002678,0.000431,0.006934
13600000,0.0324,0.013523,0.002678,0.000431,0.007287
13601000,0.0324,0.013523,0.002678,0.000431,0.006582
13602000,0.0324,0.013523,0.002678,0.000431,0.006111
13603000,0.0324,0.013523,0.002678,0.000431,0.006229
13604000,0.0324,0.013523,0.002678,0.000431,0.006699
13605000,0.0324,0.013523,0.002678,0.000431,0.006582
13606000,0.0324,0.013523,0.002678,0.000431,0.006464
13607000,0.0324,0.013523,0.002678,0.000431,0.006582
13608000,0.0324,0.013523,0.002678,0.000431,0.006111
13609000,0.0324,0.013523,0.002678,0.000431,0.006111
13610000,0.0324,0.013523,0.002678,0.000431,0.006111
13611000,0.0324,0.013523,0.002678,0.000431,0.006582
13612000,0.0324,0.013523,0.002678,0.000431,0.006111
13613000,0.0324,0.013523,0.002678,0.000431,0.006582
13614000,0.0324,0.013523,0.002678,0.000431,0.005641
13615000,0.0324,0.013523,0.002678,0.000431,0.006464
13616000,0.0324,0.013523,0.002678,0.000431,0.005759
13617000,0.0324,0.013523,0.002678,0.000431,0.006111
13618000,0.0324,0.013523,0.002678,0.000431,0.006229
13619000,0.0324,0.013523,0.002678,0.000431,0.007052
13620000,0.0324,0.013523,0.002678,0.000431,0.006464
13621000,0.0324,0.013523,0.002678,0.000431,0.006934
13622000,0.0324,0.013523,0.002678,0.000431,0.006229
13623000,0.0324,0.013523,0.002678,0.000431,0.005876
13624000,0.0324,0.013523,0.002678,0.000431,0.006464
13625000,0.0324,0.013523,0.002678,0.000431,0.005994
13626000,0.0324,0.013523,0.002678,0.000431,0.006699
13627000,0.0324,0.013523,0.002678,0.000431,0.005994
13628000,0.0324,0.013523,0.002678,0.000431,0.006464
13629000,0.0324,0.013523,0.002678,0.000431,0.006464
13630000,0.0324,0.013523,0.002678,0.000431,0.007052
13631000,0.0324,0.013523,0.002678,0.000431,0.006347
13632000,0.0324,0.013523,0.002678,0.000431,0.006699
13633000,0.0324,0.013523,0.002678,0.000431,0.005524
13634000,0.0324,0.013523,0.002678,0.000431,0.006229
13635000,0.0324,0.013523,0.002678,0.000431,0.007522
13636000,0.0324,0.013523,0.002678,0.000431,0.006934
13637000,0.0324,0.013523,0.002678,0.000431,0.005876
13638000,0.0324,0.013523,0.002678,0.000431,0.006699
13639000,0.0324,0.013523,0.002678,0.000431,0.006229
13640000,0.0324,0.013523,0.002678,0.000431,0.007052
13641000,0.0324,0.013523,0.002678,0.000431,0.006347
13642000,0.0324,0.013523,0.002678,0.000431,0.006699
13643000,0.0324,0.013523,0.002678,0.000431,0.006699
13644000,0.0324,0.013523,0.002678,0.000431,0.006229
13645000,0.0324,0.013523,0.002678,0.000431,0.006464
13646000,0.0324,0.013523,0.002678,0.000431,0.006464
13647000,0.0324,0.013523,0.002678,0.000431,0.006111
13648000,0.0324,0.013523,0.002678,0.000431,0.006229
13649000,0.0324,0.013523,0.002678,0.000431,0.006229
13650000,0.0324,0.013523,0.002678,0.000431,0.006582
13651000,0.0324,0.013523,0.002678,0.000431,0.006347
13652000,0.0324,0.013523,0.002678,0.000431,0.006464
13653000,0.0324,0.013523,0.002678,0.000431,0.006464
13654000,0.0324,0.013523,0.002678,0.000431,0.005759
13655000,0.0324,0.013523,0.002678,0.000431,0.006111
13656000,0.0324,0.013523,0.002678,0.000431,0.006817
13657000,0.0324,0.013523,0.002678,0.000431,0.006347
13658000,0.0324,0.013523,0.002678,0.000431,0.006582
13659000,0.0324,0.013523,0.002678,0.000431,0.006347
13660000,0.0324,0.013523,0.002678,0.000431,0.006817
13661000,0.0324,0.013523,0.002678,0.000431,0.006464
13662000,0.0324,0.013523,0.002678,0.000431,0.006229
13663000,0.0324,0.013523,0.002678,0.000431,0.006817
13664000,0.0324,0.013523,0.002678,0.000431,0.006464
13665000,0.0324,0.013523,0.002678,0.000431,0.005759
13666000,0.0324,0.013523,0.002678,0.000431,0.006699
13667000,0.0324,0.013523,0.002678,0.000431,0.005876
13668000,0.0324,0.013523,0.002678,0.000431,0.006464
13669000,0.0324,0.013523,0.002678,0.000431,0.006464
13670000,0.0324,0.013523,0.002678,0.000431,0.006699
13671000,0.0324,0.013523,0.002678,0.000431,0.006582
13672000,0.0324,0.013523,0.002678,0.000431,0.005759
13673000,0.0324,0.013523,0.002678,0.000431,0.006347
13674000,0.0324,0.013523,0.002678,0.000431,0.006934
13675000,0.0324,0.013523,0.002678,0.000431,0.005641
13676000,0.0324,0.013523,0.002678,0.000431,0.007052
13677000,0.0324,0.013523,0.002678,0.000431,0.007169
13678000,0.0324,0.013523,0.002678,0.000431,0.006699
13679000,0.0324,0.013523,0.002678,0.000431,0.006464
13680000,0.0324,0.013523,0.002678,0.000431,0.006464
13681000,0.0324,0.013523,0.002678,0.000431,0.006229
13682000,0.0324,0.013523,0.002678,0.000431,0.007052
13683000,0.0324,0.013523,0.002678,0.000431,0.006699
13684000,0.0324,0.013523,0.002678,0.000431,0.006934
13685000,0.0324,0.013523,0.002678,0.000431,0.005641
13686000,0.0324,0.013523,0.002678,0.000431,0.006699
13687000,0.0324,0.013523,0.002678,0.000431,0.006582
13688000,0.0324,0.013523,0.002678,0.000431,0.005876
13689000,0.0324,0.013523,0.002678,0.000431,0.006934
13690000,0.0324,0.013523,0.002678,0.000431,0.005876
13691000,0.0324,0.013523,0.002678,0.000431,0.006111
13692000,0.0324,0.013523,0.002678,0.000431,0.005759
13693000,0.0324,0.013523,0.002678,0.000431,0.006934
13694000,0.0324,0.013523,0.002678,0.000431,0.006934
13695000,0.0324,0.013523,0.002678,0.000431,0.005289
13696000,0.0324,0.013523,0.002678,0.000431,0.006817
13697000,0.0324,0.013523,0.002678,0.000431,0.006934
13698000,0.0324,0.013523,0.002678,0.000431,0.006464
13699000,0.0324,0.013523,0.002678,0.000431,0.006699
13700000,0.0324,0.013523,0.002678,0.000431,0.006699
13701000,0.0324,0.013523,0.002678,0.000431,0.006464
13702000,0.0324,0.013523,0.002678,0.000431,0.006347
13703000,0.0324,0.013523,0.002678,0.000431,0.006582
13704000,0.0324,0.013523,0.002678,0.000431,0.006464
13705000,0.0324,0.013523,0.002678,0.000431,0.005994
13706000,0.0324,0.013523,0.002678,0.000431,0.006347
13707000,0.0324,0.013523,0.002678,0.000431,0.006582
13708000,0.0324,0.013523,0.002678,0.000431,0.006464
13709000,0.0324,0.013523,0.002678,0.000431,0.006111
13710000,0.0324,0.013523,0.002678,0.000431,0.006699
13711000,0.0324,0.013523,0.002678,0.000431,0.006699
13712000,0.0324,0.013523,0.002678,0.000431,0.005876
13713000,0.0324,0.013523,0.002678,0.000431,0.006229
13714000,0.0324,0.013523,0.002678,0.000431,0.006817
13715000,0.0324,0.013523,0.002678,0.000431,0.006464
13716000,0.0324,0.013523,0.002678,0.000431,0.006111
13717000,0.0324,0.013523,0.002678,0.000431,0.006464
13718000,0.0324,0.013523,0.002678,0.000431,0.005759
13719000,0.0324,0.013523,0.002678,0.000431,0.006817
13720000,0.0324,0.013523,0.002678,0.000431,0.006229
13721000,0.0324,0.013523,0.002678,0.000431,0.007052
13722000,0.0324,0.013523,0.002678,0.000431,0.006699
13723000,0.0324,0.013523,0.002678,0.000431,0.006582
13724000,0.0324,0.013523,0.002678,0.000431,0.006347
13725000,0.0324,0.013523,0.002678,0.000431,0.005994
13726000,0.0324,0.013523,0.002678,0.000431,0.007052
13727000,0.0324,0.013523,0.002678,0.000431,0.006582
13728000,0.0324,0.013523,0.002678,0.000431,0.006347
13729000,0.0324,0.013523,0.002678,0.000431,0.005876
13730000,0.0324,0.013523,0.002678,0.000431,0.007052
13731000,0.0324,0.013523,0.002678,0.000431,0.006699
13732000,0.0324,0.013523,0.002678,0.000431,0.006347
13733000,0.0324,0.013523,0.002678,0.000431,0.006347
13734000,0.0324,0.013523,0.002678,0.000431,0.006111
13735000,0.0324,0.013523,0.002678,0.000431,0.006347
13736000,0.0324,0.013523,0.002678,0.000431,0.005759
13737000,0.0324,0.013523,0.002678,0.000431,0.006347
13738000,0.0324,0.013523,0.002678,0.000431,0.006229
13739000,0.0324,0.013523,0.002678,0.000431,0.006111
13740000,0.0324,0.013523,0.002678,0.000431,0.005759
13741000,0.0324,0.013523,0.002678,0.000431,0.007757
13742000,0.0324,0.013523,0.002678,0.000431,0.006347
13743000,0.0324,0.013523,0.002678,0.000431,0.006464
13744000,0.0324,0.013523,0.002678,0.000431,0.006464
13745000,0.0324,0.013523,0.002678,0.000431,0.007169
13746000,0.0324,0.013523,0.002678,0.000431,0.006229
13747000,0.0324,0.013523,0.002678,0.000431,0.006229
13748000,0.0324,0.013523,0.002678,0.000431,0.006582
13749000,0.0324,0.013523,0.002678,0.000431,0.006111
13750000,0.0324,0.013523,0.002678,0.000431,0.006464
13751000,0.0324,0.013523,0.002678,0.000431,0.006699
13752000,0.0324,0.013523,0.002678,0.000431,0.006347
13753000,0.0324,0.013523,0.002678,0.000431,0.005759
13754000,0.0324,0.013523,0.002678,0.000431,0.006111
13755000,0.0324,0.013523,0.002678,0.000431,0.005876
13756000,0.0324,0.013523,0.002678,0.000431,0.006699
13757000,0.0324,0.013523,0.002678,0.000431,0.006347
13758000,0.0324,0.013523,0.002678,0.000431,0.006699
13759000,0.0324,0.013523,0.002678,0.000431,0.006464
13760000,0.0324,0.013523,0.002678,0.000431,0.006464
13761000,0.0324,0.013523,0.002678,0.000431,0.006111
13762000,0.0324,0.013523,0.002678,0.000431,0.006817
13763000,0.0324,0.013523,0.002678,0.000431,0.006347
13764000,0.0324,0.013523,0.002678,0.000431,0.006582
13765000,0.0324,0.013523,0.002678,0.000431,0.006582
13766000,0.0324,0.013523,0.002678,0.000431,0.007052
13767000,0.0324,0.013523,0.002678,0.000431,0.006464
13768000,0.0324,0.013523,0.002678,0.000431,0.006699
13769000,0.0324,0.013523,0.002678,0.000431,0.005759
13770000,0.0324,0.013523,0.002678,0.000431,0.006347
13771000,0.0324,0.013523,0.002678,0.000431,0.006817
13772000,0.0324,0.013523,0.002678,0.000431,0.006229
13773000,0.0324,0.013523,0.002678,0.000431,0.006582
13774000,0.0324,0.013523,0.002678,0.000431,0.005994
13775000,0.0324,0.013523,0.002678,0.000431,0.005289
13776000,0.0324,0.013523,0.002678,0.000431,0.005759
13777000,0.0324,0.013523,0.002678,0.000431,0.006464
13778000,0.0324,0.013523,0.002678,0.000431,0.006934
13779000,0.0324,0.013523,0.002678,0.000431,0.006582
13780000,0.0324,0.013523,0.002678,0.000431,0.006111
13781000,0.0324,0.013523,0.002678,0.000431,0.005994
13782000,0.0324,0.013523,0.002678,0.000431,0.006582
13783000,0.0324,0.013523,0.002678,0.000431,0.005994
13784000,0.0324,0.013523,0.002678,0.000431,0.007757
13785000,0.0324,0.013523,0.002678,0.000431,0.006464
13786000,0.0324,0.013523,0.002678,0.000431,0.006582
13787000,0.0324,0.013523,0.002678,0.000431,0.006464
13788000,0.0324,0.013523,0.002678,0.000431,0.005759
13789000,0.0324,0.013523,0.002678,0.000431,0.006464
13790000,0.0324,0.013523,0.002678,0.000431,0.006347
13791000,0.0324,0.013523,0.002678,0.000431,0.006229
13792000,0.0324,0.013523,0.002678,0.000431,0.005876
13793000,0.0324,0.013523,0.002678,0.000431,0.007169
13794000,0.0324,0.013523,0.002678,0.000431,0.005876
13795000,0.0324,0.013523,0.002678,0.000431,0.006934
13796000,0.0324,0.013523,0.002678,0.000431,0.006582
13797000,0.0324,0.013523,0.002678,0.000431,0.005759
13798000,0.0324,0.013523,0.002678,0.000431,0.006699
13799000,0.0324,0.013523,0.002678,0.000431,0.005406
13800000,0.0324,0.013523,0.002678,0.000431,0.006582
13801000,0.0324,0.013523,0.002678,0.000431,0.006347
13802000,0.0324,0.013523,0.002678,0.000431,0.006464
13803000,0.0324,0.013523,0.002678,0.000431,0.006699
13804000,0.0324,0.013523,0.002678,0.000431,0.007169
13805000,0.0324,0.013523,0.002678,0.000431,0.006347
13806000,0.0324,0.013523,0.002678,0.000431,0.006111
13807000,0.0324,0.013523,0.002678,0.000431,0.006229
13808000,0.0324,0.013523,0.002678,0.000431,0.006111
13809000,0.0324,0.013523,0.002678,0.000431,0.005994
13810000,0.0324,0.013523,0.002678,0.000431,0.006111
13811000,0.0324,0.013523,0.002678,0.000431,0.007287
13812000,0.0324,0.013523,0.002678,0.000431,0.006699
13813000,0.0324,0.013523,0.002678,0.000431,0.006464
13814000,0.0324,0.013523,0.002678,0.000431,0.007052
13815000,0.0324,0.013523,0.002678,0.000431,0.006111
13816000,0.0324,0.013523,0.002678,0.000431,0.006229
13817000,0.0324,0.013523,0.002678,0.000431,0.006347
13818000,0.0324,0.013523,0.002678,0.000431,0.006347
13819000,0.0324,0.013523,0.002678,0.000431,0.005759
13820000,0.0324,0.013523,0.002678,0.000431,0.005876
13821000,0.0324,0.013523,0.002678,0.000431,0.006699
13822000,0.0324,0.013523,0.002678,0.000431,0.006347
13823000,0.0324,0.013523,0.002678,0.000431,0.005289
13824000,0.0324,0.013523,0.002678,0.000431,0.006817
13825000,0.0324,0.013523,0.002678,0.000431,0.006464
13826000,0.0324,0.013523,0.002678,0.000431,0.007169
13827000,0.0324,0.013523,0.002678,0.000431,0.006817
13828000,0.0324,0.013523,0.002678,0.000431,0.006229
13829000,0.0324,0.013523,0.002678,0.000431,0.006111
13830000,0.0324,0.013523,0.002678,0.000431,0.006699
13831000,0.0324,0.013523,0.002678,0.000431,0.006817
13832000,0.0324,0.013523,0.002678,0.000431,0.006464
13833000,0.0324,0.013523,0.002678,0.000431,0.006699
13834000,0.0324,0.013523,0.002678,0.000431,0.006934
13835000,0.0324,0.013523,0.002678,0.000431,0.006347
13836000,0.0324,0.013523,0.002678,0.000431,0.006817
13837000,0.0324,0.013523,0.002678,0.000431,0.006464
13838000,0.0324,0.013523,0.002678,0.000431,0.006699
13839000,0.0324,0.013523,0.002678,0.000431,0.006111
13840000,0.0324,0.013523,0.002678,0.000431,0.007052
13841000,0.0324,0.013523,0.002678,0.000431,0.005641
13842000,0.0324,0.013523,0.002678,0.000431,0.005994
13843000,0.0324,0.013523,0.002678,0.000431,0.006347
13844000,0.0324,0.013523,0.002678,0.000431,0.006582
13845000,0.0324,0.013523,0.002678,0.000431,0.006111
13846000,0.0324,0.013523,0.002678,0.000431,0.007052
13847000,0.0324,0.013523,0.002678,0.000431,0.006229
13848000,0.0324,0.013523,0.002678,0.000431,0.006464
13849000,0.0324,0.013523,0.002678,0.000431,0.006699
13850000,0.0324,0.013523,0.002678,0.000431,0.005876
13851000,0.0324,0.013523,0.002678,0.000431,0.006699
13852000,0.0324,0.013523,0.002678,0.000431,0.006934
13853000,0.0324,0.013523,0.002678,0.000431,0.006699
13854000,0.0324,0.013523,0.002678,0.000431,0.006582
13855000,0.0324,0.013523,0.002678,0.000431,0.006582
13856000,0.0324,0.013523,0.002678,0.000431,0.006699
13857000,0.0324,0.013523,0.002678,0.000431,0.006229
13858000,0.0324,0.013523,0.002678,0.000431,0.005994
13859000,0.0324,0.013523,0.002678,0.000431,0.006111
13860000,0.0324,0.013523,0.002678,0.000431,0.005994
13861000,0.0324,0.013523,0.002678,0.000431,0.006699
13862000,0.0324,0.013523,0.002678,0.000431,0.006582
13863000,0.0324,0.013523,0.002678,0.000431,0.005994
13864000,0.0324,0.013523,0.002678,0.000431,0.006817
13865000,0.0324,0.013523,0.002678,0.000431,0.006464
13866000,0.0324,0.013523,0.002678,0.000431,0.006347
13867000,0.0324,0.013523,0.002678,0.000431,0.006111
13868000,0.0324,0.013523,0.002678,0.000431,0.006699
13869000,0.0324,0.013523,0.002678,0.000431,0.006582
13870000,0.0324,0.013523,0.002678,0.000431,0.005994
13871000,0.0324,0.013523,0.002678,0.000431,0.006934
13872000,0.0324,0.013523,0.002678,0.000431,0.006699
13873000,0.0324,0.013523,0.002678,0.000431,0.006347
13874000,0.0324,0.013523,0.002678,0.000431,0.005876
13875000,0.0324,0.013523,0.002678,0.000431,0.006229
13876000,0.0324,0.013523,0.002678,0.000431,0.006699
13877000,0.0324,0.013523,0.002678,0.000431,0.005876
13878000,0.0324,0.013523,0.002678,0.000431,0.006817
13879000,0.0324,0.013523,0.002678,0.000431,0.006111
13880000,0.0324,0.013523,0.002678,0.000431,0.006464
13881000,0.0324,0.013523,0.002678,0.000431,0.005994
13882000,0.0324,0.013523,0.002678,0.000431,0.006464
13883000,0.0324,0.013523,0.002678,0.000431,0.006347
13884000,0.0324,0.013523,0.002678,0.000431,0.005994
13885000,0.0324,0.013523,0.002678,0.000431,0.006699
13886000,0.0324,0.013523,0.002678,0.000431,0.006464
13887000,0.0324,0.013523,0.002678,0.000431,0.006464
13888000,0.0324,0.013523,0.002678,0.000431,0.007052
13889000,0.0324,0.013523,0.002678,0.000431,0.006582
13890000,0.0324,0.013523,0.002678,0.000431,0.006699
13891000,0.0324,0.013523,0.002678,0.000431,0.005524
13892000,0.0324,0.013523,0.002678,0.000431,0.006817
13893000,0.0324,0.013523,0.002678,0.000431,0.006464
13894000,0.0324,0.013523,0.002678,0.000431,0.006817
13895000,0.0324,0.013523,0.002678,0.000431,0.005994
13896000,0.0324,0.013523,0.002678,0.000431,0.006699
13897000,0.0324,0.013523,0.002678,0.000431,0.006817
13898000,0.0324,0.013523,0.002678,0.000431,0.005994
13899000,0.0324,0.013523,0.002678,0.000431,0.006582
13900000,0.0324,0.013523,0.002678,0.000431,0.006934
13901000,0.0324,0.013523,0.002678,0.000431,0.005406
13902000,0.0324,0.013523,0.002678,0.000431,0.007052
13903000,0.0324,0.013523,0.002678,0.000431,0.006229
13904000,0.0324,0.013523,0.002678,0.000431,0.006229
13905000,0.0324,0.013523,0.002678,0.000431,0.007052
13906000,0.0324,0.013523,0.002678,0.000431,0.005289
13907000,0.0324,0.013523,0.002678,0.000431,0.006817
13908000,0.0324,0.013523,0.002678,0.000431,0.005641
13909000,0.0324,0.013523,0.002678,0.000431,0.005994
13910000,0.0324,0.013523,0.002678,0.000431,0.006582
13911000,0.0324,0.013523,0.002678,0.000431,0.006229
13912000,0.0324,0.013523,0.002678,0.000431,0.006817
13913000,0.0324,0.013523,0.002678,0.000431,0.006582
13914000,0.0324,0.013523,0.002678,0.000431,0.006347
13915000,0.0324,0.013523,0.002678,0.000431,0.006582
13916000,0.0324,0.013523,0.002678,0.000431,0.006347
13917000,0.0324,0.013523,0.002678,0.000431,0.005876
13918000,0.0324,0.013523,0.002678,0.000431,0.006699
13919000,0.0324,0.013523,0.002678,0.000431,0.005876
13920000,0.0324,0.013523,0.002678,0.000431,0.006464
13921000,0.0324,0.013523,0.002678,0.000431,0.006699
13922000,0.0324,0.013523,0.002678,0.000431,0.005994
13923000,0.0324,0.013523,0.002678,0.000431,0.006347
13924000,0.0324,0.013523,0.002678,0.000431,0.006229
13925000,0.0324,0.013523,0.002678,0.000431,0.006347
13926000,0.0324,0.013523,0.002678,0.000431,0.005994
13927000,0.0324,0.013523,0.002678,0.000431,0.006347
13928000,0.0324,0.013523,0.002678,0.000431,0.006817
13929000,0.0324,0.013523,0.002678,0.000431,0.006464
13930000,0.0324,0.013523,0.002678,0.000431,0.006582
13931000,0.0324,0.013523,0.002678,0.000431,0.006582
13932000,0.0324,0.013523,0.002678,0.000431,0.005759
13933000,0.0324,0.013523,0.002678,0.000431,0.006582
13934000,0.0324,0.013523,0.002678,0.000431,0.006111
13935000,0.0324,0.013523,0.002678,0.000431,0.006817
13936000,0.0324,0.013523,0.002678,0.000431,0.005524
13937000,0.0324,0.013523,0.002678,0.000431,0.006347
13938000,0.0324,0.013523,0.002678,0.000431,0.006464
13939000,0.0324,0.013523,0.002678,0.000431,0.006229
13940000,0.0324,0.013523,0.002678,0.000431,0.006229
13941000,0.0324,0.013523,0.002678,0.000431,0.006111
13942000,0.0324,0.013523,0.002678,0.000431,0.006347
13943000,0.0324,0.013523,0.002678,0.000431,0.006229
13944000,0.0324,0.013523,0.002678,0.000431,0.006817
13945000,0.0324,0.013523,0.002678,0.000431,0.006464
13946000,0.0324,0.013523,0.002678,0.000431,0.006699
13947000,0.0324,0.013523,0.002678,0.000431,0.005994
13948000,0.0324,0.013523,0.002678,0.000431,0.006464
13949000,0.0324,0.013523,0.002678,0.000431,0.005994
13950000,0.0324,0.013523,0.002678,0.000431,0.006699
13951000,0.0324,0.013523,0.002678,0.000431,0.006817
13952000,0.0324,0.013523,0.002678,0.000431,0.006464
13953000,0.0324,0.013523,0.002678,0.000431,0.006582
13954000,0.0324,0.013523,0.002678,0.000431,0.006582
13955000,0.0324,0.013523,0.002678,0.000431,0.007169
13956000,0.0324,0.013523,0.002678,0.000431,0.005641
13957000,0.0324,0.013523,0.002678,0.000431,0.007169
13958000,0.0324,0.013523,0.002678,0.000431,0.006934
13959000,0.0324,0.013523,0.002678,0.000431,0.006229
13960000,0.0324,0.013523,0.002678,0.000431,0.005406
13961000,0.0324,0.013523,0.002678,0.000431,0.006111
13962000,0.0324,0.013523,0.002678,0.000431,0.006229
13963000,0.0324,0.013523,0.002678,0.000431,0.006347
13964000,0.0324,0.013523,0.002678,0.000431,0.006347
13965000,0.0324,0.013523,0.002678,0.000431,0.006229
13966000,0.0324,0.013523,0.002678,0.000431,0.006817
13967000,0.0324,0.013523,0.002678,0.000431,0.006111
13968000,0.0324,0.013523,0.002678,0.000431,0.006934
13969000,0.0324,0.013523,0.002678,0.000431,0.006699
13970000,0.0324,0.013523,0.002678,0.000431,0.006229
13971000,0.0324,0.013523,0.002678,0.000431,0.006229
13972000,0.0324,0.013523,0.002678,0.000431,0.005641
13973000,0.0324,0.013523,0.002678,0.000431,0.006699
13974000,0.0324,0.013523,0.002678,0.000431,0.006582
13975000,0.0324,0.013523,0.002678,0.000431,0.007404
13976000,0.0324,0.013523,0.002678,0.000431,0.006464
13977000,0.0324,0.013523,0.002678,0.000431,0.006229
13978000,0.0324,0.013523,0.002678,0.000431,0.006934
13979000,0.0324,0.013523,0.002678,0.000431,0.007052
13980000,0.0324,0.013523,0.002678,0.000431,0.005641
13981000,0.0324,0.013523,0.002678,0.000431,0.006111
13982000,0.0324,0.013523,0.002678,0.000431,0.006464
13983000,0.0324,0.013523,0.002678,0.000431,0.006582
13984000,0.0324,0.013523,0.002678,0.000431,0.005876
13985000,0.0324,0.013523,0.002678,0.000431,0.007052
13986000,0.0324,0.013523,0.002678,0.000431,0.006347
13987000,0.0324,0.013523,0.002678,0.000431,0.006464
13988000,0.0324,0.013523,0.002678,0.000431,0.006699
13989000,0.0324,0.013523,0.002678,0.000431,0.006229
13990000,0.0324,0.013523,0.002678,0.000431,0.007169
13991000,0.0324,0.013523,0.002678,0.000431,0.006111
13992000,0.0324,0.013523,0.002678,0.000431,0.006464
13993000,0.0324,0.013523,0.002678,0.000431,0.006464
13994000,0.0324,0.013523,0.002678,0.000431,0.006347
13995000,0.0324,0.013523,0.002678,0.000431,0.006464
13996000,0.0324,0.013523,0.002678,0.000431,0.006699
13997000,0.0324,0.013523,0.002678,0.000431,0.006347
13998000,0.0324,0.013523,0.002678,0.000431,0.005876
13999000,0.0324,0.013523,0.002678,0.000431,0.006464
