Cycle,Area(mm^2),PeakDynamic(W),SubthresholdLeakage(W),GateLeakage(W),RunTimeDynamic(W)
7000000,0.0324,0.013523,0.002678,0.000431,0.030440
7001000,0.0324,0.013523,0.002678,0.000431,0.030322
7002000,0.0324,0.013523,0.002678,0.000431,0.030440
7003000,0.0324,0.013523,0.002678,0.000431,0.028089
7004000,0.0324,0.013523,0.002678,0.000431,0.028794
7005000,0.0324,0.013523,0.002678,0.000431,0.027972
7006000,0.0324,0.013523,0.002678,0.000431,0.029735
7007000,0.0324,0.013523,0.002678,0.000431,0.029382
7008000,0.0324,0.013523,0.002678,0.000431,0.028089
7009000,0.0324,0.013523,0.002678,0.000431,0.031850
7010000,0.0324,0.013523,0.002678,0.000431,0.029852
7011000,0.0324,0.013523,0.002678,0.000431,0.029265
7012000,0.0324,0.013523,0.002678,0.000431,0.029735
7013000,0.0324,0.013523,0.002678,0.000431,0.030557
7014000,0.0324,0.013523,0.002678,0.000431,0.030792
7015000,0.0324,0.013523,0.002678,0.000431,0.029617
7016000,0.0324,0.013523,0.002678,0.000431,0.029382
7017000,0.0324,0.013523,0.002678,0.000431,0.029029
7018000,0.0324,0.013523,0.002678,0.000431,0.029500
7019000,0.0324,0.013523,0.002678,0.000431,0.030675
7020000,0.0324,0.013523,0.002678,0.000431,0.029617
7021000,0.0324,0.013523,0.002678,0.000431,0.029500
7022000,0.0324,0.013523,0.002678,0.000431,0.028912
7023000,0.0324,0.013523,0.002678,0.000431,0.030205
7024000,0.0324,0.013523,0.002678,0.000431,0.029735
7025000,0.0324,0.013523,0.002678,0.000431,0.028207
7026000,0.0324,0.013523,0.002678,0.000431,0.026796
7027000,0.0324,0.013523,0.002678,0.000431,0.031027
7028000,0.0324,0.013523,0.002678,0.000431,0.029029
7029000,0.0324,0.013523,0.002678,0.000431,0.031262
7030000,0.0324,0.013523,0.002678,0.000431,0.030087
7031000,0.0324,0.013523,0.002678,0.000431,0.028324
7032000,0.0324,0.013523,0.002678,0.000431,0.029500
7033000,0.0324,0.013523,0.002678,0.000431,0.030910
7034000,0.0324,0.013523,0.002678,0.000431,0.029029
7035000,0.0324,0.013523,0.002678,0.000431,0.028912
7036000,0.0324,0.013523,0.002678,0.000431,0.028559
7037000,0.0324,0.013523,0.002678,0.000431,0.031498
7038000,0.0324,0.013523,0.002678,0.000431,0.028677
7039000,0.0324,0.013523,0.002678,0.000431,0.030557
7040000,0.0324,0.013523,0.002678,0.000431,0.031027
7041000,0.0324,0.013523,0.002678,0.000431,0.026796
7042000,0.0324,0.013523,0.002678,0.000431,0.030322
7043000,0.0324,0.013523,0.002678,0.000431,0.030440
7044000,0.0324,0.013523,0.002678,0.000431,0.028324
7045000,0.0324,0.013523,0.002678,0.000431,0.028089
7046000,0.0324,0.013523,0.002678,0.000431,0.027267
7047000,0.0324,0.013523,0.002678,0.000431,0.027737
7048000,0.0324,0.013523,0.002678,0.000431,0.029852
7049000,0.0324,0.013523,0.002678,0.000431,0.026561
7050000,0.0324,0.013523,0.002678,0.000431,0.030440
7051000,0.0324,0.013523,0.002678,0.000431,0.028912
7052000,0.0324,0.013523,0.002678,0.000431,0.029029
7053000,0.0324,0.013523,0.002678,0.000431,0.027031
7054000,0.0324,0.013523,0.002678,0.000431,0.031380
7055000,0.0324,0.013523,0.002678,0.000431,0.029147
7056000,0.0324,0.013523,0.002678,0.000431,0.026679
7057000,0.0324,0.013523,0.002678,0.000431,0.029852
7058000,0.0324,0.013523,0.002678,0.000431,0.031027
7059000,0.0324,0.013523,0.002678,0.000431,0.027502
7060000,0.0324,0.013523,0.002678,0.000431,0.029382
7061000,0.0324,0.013523,0.002678,0.000431,0.027267
7062000,0.0324,0.013523,0.002678,0.000431,0.028559
7063000,0.0324,0.013523,0.002678,0.000431,0.030440
7064000,0.0324,0.013523,0.002678,0.000431,0.027737
7065000,0.0324,0.013523,0.002678,0.000431,0.028324
7066000,0.0324,0.013523,0.002678,0.000431,0.028912
7067000,0.0324,0.013523,0.002678,0.000431,0.026444
7068000,0.0324,0.013523,0.002678,0.000431,0.029265
7069000,0.0324,0.013523,0.002678,0.000431,0.029500
7070000,0.0324,0.013523,0.002678,0.000431,0.028324
7071000,0.0324,0.013523,0.002678,0.000431,0.026796
7072000,0.0324,0.013523,0.002678,0.000431,0.029852
7073000,0.0324,0.013523,0.002678,0.000431,0.028677
7074000,0.0324,0.013523,0.002678,0.000431,0.027854
7075000,0.0324,0.013523,0.002678,0.000431,0.027854
7076000,0.0324,0.013523,0.002678,0.000431,0.026679
7077000,0.0324,0.013523,0.002678,0.000431,0.027149
7078000,0.0324,0.013523,0.002678,0.000431,0.027031
7079000,0.0324,0.013523,0.002678,0.000431,0.029735
7080000,0.0324,0.013523,0.002678,0.000431,0.027854
7081000,0.0324,0.013523,0.002678,0.000431,0.028912
7082000,0.0324,0.013523,0.002678,0.000431,0.026561
7083000,0.0324,0.013523,0.002678,0.000431,0.031027
7084000,0.0324,0.013523,0.002678,0.000431,0.030087
7085000,0.0324,0.013523,0.002678,0.000431,0.028559
7086000,0.0324,0.013523,0.002678,0.000431,0.027384
7087000,0.0324,0.013523,0.002678,0.000431,0.028677
7088000,0.0324,0.013523,0.002678,0.000431,0.026796
7089000,0.0324,0.013523,0.002678,0.000431,0.029029
7090000,0.0324,0.013523,0.002678,0.000431,0.027972
7091000,0.0324,0.013523,0.002678,0.000431,0.028207
7092000,0.0324,0.013523,0.002678,0.000431,0.028207
7093000,0.0324,0.013523,0.002678,0.000431,0.028442
7094000,0.0324,0.013523,0.002678,0.000431,0.028089
7095000,0.0324,0.013523,0.002678,0.000431,0.031498
7096000,0.0324,0.013523,0.002678,0.000431,0.027854
7097000,0.0324,0.013523,0.002678,0.000431,0.027502
7098000,0.0324,0.013523,0.002678,0.000431,0.026561
7099000,0.0324,0.013523,0.002678,0.000431,0.029382
7100000,0.0324,0.013523,0.002678,0.000431,0.029147
7101000,0.0324,0.013523,0.002678,0.000431,0.027854
7102000,0.0324,0.013523,0.002678,0.000431,0.027619
7103000,0.0324,0.013523,0.002678,0.000431,0.029382
7104000,0.0324,0.013523,0.002678,0.000431,0.026326
7105000,0.0324,0.013523,0.002678,0.000431,0.029617
7106000,0.0324,0.013523,0.002678,0.000431,0.026561
7107000,0.0324,0.013523,0.002678,0.000431,0.027972
7108000,0.0324,0.013523,0.002678,0.000431,0.025856
7109000,0.0324,0.013523,0.002678,0.000431,0.028089
7110000,0.0324,0.013523,0.002678,0.000431,0.029147
7111000,0.0324,0.013523,0.002678,0.000431,0.027384
7112000,0.0324,0.013523,0.002678,0.000431,0.026796
7113000,0.0324,0.013523,0.002678,0.000431,0.025856
7114000,0.0324,0.013523,0.002678,0.000431,0.025504
7115000,0.0324,0.013523,0.002678,0.000431,0.027737
7116000,0.0324,0.013523,0.002678,0.000431,0.026209
7117000,0.0324,0.013523,0.002678,0.000431,0.028324
7118000,0.0324,0.013523,0.002678,0.000431,0.026914
7119000,0.0324,0.013523,0.002678,0.000431,0.025739
7120000,0.0324,0.013523,0.002678,0.000431,0.027031
7121000,0.0324,0.013523,0.002678,0.000431,0.027267
7122000,0.0324,0.013523,0.002678,0.000431,0.026561
7123000,0.0324,0.013523,0.002678,0.000431,0.025621
7124000,0.0324,0.013523,0.002678,0.000431,0.027149
7125000,0.0324,0.013523,0.002678,0.000431,0.027619
7126000,0.0324,0.013523,0.002678,0.000431,0.028442
7127000,0.0324,0.013523,0.002678,0.000431,0.026679
7128000,0.0324,0.013523,0.002678,0.000431,0.025504
7129000,0.0324,0.013523,0.002678,0.000431,0.027267
7130000,0.0324,0.013523,0.002678,0.000431,0.028912
7131000,0.0324,0.013523,0.002678,0.000431,0.026796
7132000,0.0324,0.013523,0.002678,0.000431,0.025504
7133000,0.0324,0.013523,0.002678,0.000431,0.026796
7134000,0.0324,0.013523,0.002678,0.000431,0.025739
7135000,0.0324,0.013523,0.002678,0.000431,0.026679
7136000,0.0324,0.013523,0.002678,0.000431,0.026326
7137000,0.0324,0.013523,0.002678,0.000431,0.026796
7138000,0.0324,0.013523,0.002678,0.000431,0.028794
7139000,0.0324,0.013523,0.002678,0.000431,0.025386
7140000,0.0324,0.013523,0.002678,0.000431,0.026091
7141000,0.0324,0.013523,0.002678,0.000431,0.026091
7142000,0.0324,0.013523,0.002678,0.000431,0.027031
7143000,0.0324,0.013523,0.002678,0.000431,0.026091
7144000,0.0324,0.013523,0.002678,0.000431,0.027854
7145000,0.0324,0.013523,0.002678,0.000431,0.027972
7146000,0.0324,0.013523,0.002678,0.000431,0.028677
7147000,0.0324,0.013523,0.002678,0.000431,0.025739
7148000,0.0324,0.013523,0.002678,0.000431,0.025974
7149000,0.0324,0.013523,0.002678,0.000431,0.027031
7150000,0.0324,0.013523,0.002678,0.000431,0.027149
7151000,0.0324,0.013523,0.002678,0.000431,0.027619
7152000,0.0324,0.013523,0.002678,0.000431,0.027267
7153000,0.0324,0.013523,0.002678,0.000431,0.027384
7154000,0.0324,0.013523,0.002678,0.000431,0.027149
7155000,0.0324,0.013523,0.002678,0.000431,0.028207
7156000,0.0324,0.013523,0.002678,0.000431,0.028089
7157000,0.0324,0.013523,0.002678,0.000431,0.027384
7158000,0.0324,0.013523,0.002678,0.000431,0.025621
7159000,0.0324,0.013523,0.002678,0.000431,0.027854
7160000,0.0324,0.013523,0.002678,0.000431,0.026326
7161000,0.0324,0.013523,0.002678,0.000431,0.027267
7162000,0.0324,0.013523,0.002678,0.000431,0.026326
7163000,0.0324,0.013523,0.002678,0.000431,0.028559
7164000,0.0324,0.013523,0.002678,0.000431,0.028089
7165000,0.0324,0.013523,0.002678,0.000431,0.025739
7166000,0.0324,0.013523,0.002678,0.000431,0.027149
7167000,0.0324,0.013523,0.002678,0.000431,0.029265
7168000,0.0324,0.013523,0.002678,0.000431,0.026444
7169000,0.0324,0.013523,0.002678,0.000431,0.029500
7170000,0.0324,0.013523,0.002678,0.000431,0.026796
7171000,0.0324,0.013523,0.002678,0.000431,0.028677
7172000,0.0324,0.013523,0.002678,0.000431,0.027619
7173000,0.0324,0.013523,0.002678,0.000431,0.025856
7174000,0.0324,0.013523,0.002678,0.000431,0.028207
7175000,0.0324,0.013523,0.002678,0.000431,0.027149
7176000,0.0324,0.013523,0.002678,0.000431,0.026914
7177000,0.0324,0.013523,0.002678,0.000431,0.028794
7178000,0.0324,0.013523,0.002678,0.000431,0.025974
7179000,0.0324,0.013523,0.002678,0.000431,0.027502
7180000,0.0324,0.013523,0.002678,0.000431,0.027149
7181000,0.0324,0.013523,0.002678,0.000431,0.027149
7182000,0.0324,0.013523,0.002678,0.000431,0.027149
7183000,0.0324,0.013523,0.002678,0.000431,0.026326
7184000,0.0324,0.013523,0.002678,0.000431,0.026209
7185000,0.0324,0.013523,0.002678,0.000431,0.027972
7186000,0.0324,0.013523,0.002678,0.000431,0.026209
7187000,0.0324,0.013523,0.002678,0.000431,0.027972
7188000,0.0324,0.013523,0.002678,0.000431,0.027031
7189000,0.0324,0.013523,0.002678,0.000431,0.028089
7190000,0.0324,0.013523,0.002678,0.000431,0.028207
7191000,0.0324,0.013523,0.002678,0.000431,0.026326
7192000,0.0324,0.013523,0.002678,0.000431,0.029735
7193000,0.0324,0.013523,0.002678,0.000431,0.028677
7194000,0.0324,0.013523,0.002678,0.000431,0.026914
7195000,0.0324,0.013523,0.002678,0.000431,0.026561
7196000,0.0324,0.013523,0.002678,0.000431,0.027972
7197000,0.0324,0.013523,0.002678,0.000431,0.027972
7198000,0.0324,0.013523,0.002678,0.000431,0.027384
7199000,0.0324,0.013523,0.002678,0.000431,0.025621
7200000,0.0324,0.013523,0.002678,0.000431,0.027737
7201000,0.0324,0.013523,0.002678,0.000431,0.027854
7202000,0.0324,0.013523,0.002678,0.000431,0.028089
7203000,0.0324,0.013523,0.002678,0.000431,0.026561
7204000,0.0324,0.013523,0.002678,0.000431,0.028559
7205000,0.0324,0.013523,0.002678,0.000431,0.027149
7206000,0.0324,0.013523,0.002678,0.000431,0.027972
7207000,0.0324,0.013523,0.002678,0.000431,0.025856
7208000,0.0324,0.013523,0.002678,0.000431,0.027737
7209000,0.0324,0.013523,0.002678,0.000431,0.027619
7210000,0.0324,0.013523,0.002678,0.000431,0.026091
7211000,0.0324,0.013523,0.002678,0.000431,0.026914
7212000,0.0324,0.013523,0.002678,0.000431,0.028442
7213000,0.0324,0.013523,0.002678,0.000431,0.026091
7214000,0.0324,0.013523,0.002678,0.000431,0.027267
7215000,0.0324,0.013523,0.002678,0.000431,0.027149
7216000,0.0324,0.013523,0.002678,0.000431,0.025621
7217000,0.0324,0.013523,0.002678,0.000431,0.029970
7218000,0.0324,0.013523,0.002678,0.000431,0.027384
7219000,0.0324,0.013523,0.002678,0.000431,0.027972
7220000,0.0324,0.013523,0.002678,0.000431,0.027972
7221000,0.0324,0.013523,0.002678,0.000431,0.028442
7222000,0.0324,0.013523,0.002678,0.000431,0.025974
7223000,0.0324,0.013523,0.002678,0.000431,0.026679
7224000,0.0324,0.013523,0.002678,0.000431,0.027267
7225000,0.0324,0.013523,0.002678,0.000431,0.026561
7226000,0.0324,0.013523,0.002678,0.000431,0.026326
7227000,0.0324,0.013523,0.002678,0.000431,0.028912
7228000,0.0324,0.013523,0.002678,0.000431,0.027384
7229000,0.0324,0.013523,0.002678,0.000431,0.024916
7230000,0.0324,0.013523,0.002678,0.000431,0.027031
7231000,0.0324,0.013523,0.002678,0.000431,0.027267
7232000,0.0324,0.013523,0.002678,0.000431,0.025386
7233000,0.0324,0.013523,0.002678,0.000431,0.027619
7234000,0.0324,0.013523,0.002678,0.000431,0.025151
7235000,0.0324,0.013523,0.002678,0.000431,0.027031
7236000,0.0324,0.013523,0.002678,0.000431,0.024916
7237000,0.0324,0.013523,0.002678,0.000431,0.027972
7238000,0.0324,0.013523,0.002678,0.000431,0.025974
7239000,0.0324,0.013523,0.002678,0.000431,0.025856
7240000,0.0324,0.013523,0.002678,0.000431,0.028207
7241000,0.0324,0.013523,0.002678,0.000431,0.025621
7242000,0.0324,0.013523,0.002678,0.000431,0.026326
7243000,0.0324,0.013523,0.002678,0.000431,0.029147
7244000,0.0324,0.013523,0.002678,0.000431,0.025269
7245000,0.0324,0.013523,0.002678,0.000431,0.024681
7246000,0.0324,0.013523,0.002678,0.000431,0.027619
7247000,0.0324,0.013523,0.002678,0.000431,0.026444
7248000,0.0324,0.013523,0.002678,0.000431,0.027854
7249000,0.0324,0.013523,0.002678,0.000431,0.022918
7250000,0.0324,0.013523,0.002678,0.000431,0.026561
7251000,0.0324,0.013523,0.002678,0.000431,0.027267
7252000,0.0324,0.013523,0.002678,0.000431,0.026326
7253000,0.0324,0.013523,0.002678,0.000431,0.026796
7254000,0.0324,0.013523,0.002678,0.000431,0.026561
7255000,0.0324,0.013523,0.002678,0.000431,0.026444
7256000,0.0324,0.013523,0.002678,0.000431,0.026091
7257000,0.0324,0.013523,0.002678,0.000431,0.026091
7258000,0.0324,0.013523,0.002678,0.000431,0.027619
7259000,0.0324,0.013523,0.002678,0.000431,0.025269
7260000,0.0324,0.013523,0.002678,0.000431,0.025151
7261000,0.0324,0.013523,0.002678,0.000431,0.026444
7262000,0.0324,0.013523,0.002678,0.000431,0.023388
7263000,0.0324,0.013523,0.002678,0.000431,0.027737
7264000,0.0324,0.013523,0.002678,0.000431,0.025974
7265000,0.0324,0.013523,0.002678,0.000431,0.025739
7266000,0.0324,0.013523,0.002678,0.000431,0.026091
7267000,0.0324,0.013523,0.002678,0.000431,0.027384
7268000,0.0324,0.013523,0.002678,0.000431,0.025739
7269000,0.0324,0.013523,0.002678,0.000431,0.025621
7270000,0.0324,0.013523,0.002678,0.000431,0.025739
7271000,0.0324,0.013523,0.002678,0.000431,0.025269
7272000,0.0324,0.013523,0.002678,0.000431,0.026209
7273000,0.0324,0.013523,0.002678,0.000431,0.025504
7274000,0.0324,0.013523,0.002678,0.000431,0.025269
7275000,0.0324,0.013523,0.002678,0.000431,0.025856
7276000,0.0324,0.013523,0.002678,0.000431,0.025151
7277000,0.0324,0.013523,0.002678,0.000431,0.024916
7278000,0.0324,0.013523,0.002678,0.000431,0.027267
7279000,0.0324,0.013523,0.002678,0.000431,0.026444
7280000,0.0324,0.013523,0.002678,0.000431,0.023506
7281000,0.0324,0.013523,0.002678,0.000431,0.028442
7282000,0.0324,0.013523,0.002678,0.000431,0.024798
7283000,0.0324,0.013523,0.002678,0.000431,0.025034
7284000,0.0324,0.013523,0.002678,0.000431,0.027267
7285000,0.0324,0.013523,0.002678,0.000431,0.023858
7286000,0.0324,0.013523,0.002678,0.000431,0.023976
7287000,0.0324,0.013523,0.002678,0.000431,0.025034
7288000,0.0324,0.013523,0.002678,0.000431,0.027149
7289000,0.0324,0.013523,0.002678,0.000431,0.026796
7290000,0.0324,0.013523,0.002678,0.000431,0.026209
7291000,0.0324,0.013523,0.002678,0.000431,0.027031
7292000,0.0324,0.013523,0.002678,0.000431,0.023271
7293000,0.0324,0.013523,0.002678,0.000431,0.028089
7294000,0.0324,0.013523,0.002678,0.000431,0.026444
7295000,0.0324,0.013523,0.002678,0.000431,0.024446
7296000,0.0324,0.013523,0.002678,0.000431,0.026444
7297000,0.0324,0.013523,0.002678,0.000431,0.027031
7298000,0.0324,0.013523,0.002678,0.000431,0.028324
7299000,0.0324,0.013523,0.002678,0.000431,0.026091
7300000,0.0324,0.013523,0.002678,0.000431,0.027737
7301000,0.0324,0.013523,0.002678,0.000431,0.025504
7302000,0.0324,0.013523,0.002678,0.000431,0.025386
7303000,0.0324,0.013523,0.002678,0.000431,0.026209
7304000,0.0324,0.013523,0.002678,0.000431,0.028324
7305000,0.0324,0.013523,0.002678,0.000431,0.023506
7306000,0.0324,0.013523,0.002678,0.000431,0.023036
7307000,0.0324,0.013523,0.002678,0.000431,0.025974
7308000,0.0324,0.013523,0.002678,0.000431,0.027149
7309000,0.0324,0.013523,0.002678,0.000431,0.027149
7310000,0.0324,0.013523,0.002678,0.000431,0.024916
7311000,0.0324,0.013523,0.002678,0.000431,0.027267
7312000,0.0324,0.013523,0.002678,0.000431,0.025269
7313000,0.0324,0.013523,0.002678,0.000431,0.023506
7314000,0.0324,0.013523,0.002678,0.000431,0.026679
7315000,0.0324,0.013523,0.002678,0.000431,0.026561
7316000,0.0324,0.013523,0.002678,0.000431,0.026561
7317000,0.0324,0.013523,0.002678,0.000431,0.025504
7318000,0.0324,0.013523,0.002678,0.000431,0.026796
7319000,0.0324,0.013523,0.002678,0.000431,0.026561
7320000,0.0324,0.013523,0.002678,0.000431,0.025621
7321000,0.0324,0.013523,0.002678,0.000431,0.025386
7322000,0.0324,0.013523,0.002678,0.000431,0.026091
7323000,0.0324,0.013523,0.002678,0.000431,0.023741
7324000,0.0324,0.013523,0.002678,0.000431,0.026091
7325000,0.0324,0.013523,0.002678,0.000431,0.027737
7326000,0.0324,0.013523,0.002678,0.000431,0.026914
7327000,0.0324,0.013523,0.002678,0.000431,0.025621
7328000,0.0324,0.013523,0.002678,0.000431,0.026091
7329000,0.0324,0.013523,0.002678,0.000431,0.026091
7330000,0.0324,0.013523,0.002678,0.000431,0.026326
7331000,0.0324,0.013523,0.002678,0.000431,0.025974
7332000,0.0324,0.013523,0.002678,0.000431,0.025856
7333000,0.0324,0.013523,0.002678,0.000431,0.025621
7334000,0.0324,0.013523,0.002678,0.000431,0.028794
7335000,0.0324,0.013523,0.002678,0.000431,0.026326
7336000,0.0324,0.013523,0.002678,0.000431,0.025151
7337000,0.0324,0.013523,0.002678,0.000431,0.027384
7338000,0.0324,0.013523,0.002678,0.000431,0.024328
7339000,0.0324,0.013523,0.002678,0.000431,0.023623
7340000,0.0324,0.013523,0.002678,0.000431,0.028559
7341000,0.0324,0.013523,0.002678,0.000431,0.025269
7342000,0.0324,0.013523,0.002678,0.000431,0.026444
7343000,0.0324,0.013523,0.002678,0.000431,0.024563
7344000,0.0324,0.013523,0.002678,0.000431,0.025034
7345000,0.0324,0.013523,0.002678,0.000431,0.029500
7346000,0.0324,0.013523,0.002678,0.000431,0.024446
7347000,0.0324,0.013523,0.002678,0.000431,0.026091
7348000,0.0324,0.013523,0.002678,0.000431,0.025504
7349000,0.0324,0.013523,0.002678,0.000431,0.025504
7350000,0.0324,0.013523,0.002678,0.000431,0.027267
7351000,0.0324,0.013523,0.002678,0.000431,0.026679
7352000,0.0324,0.013523,0.002678,0.000431,0.024563
7353000,0.0324,0.013523,0.002678,0.000431,0.025504
7354000,0.0324,0.013523,0.002678,0.000431,0.026561
7355000,0.0324,0.013523,0.002678,0.000431,0.026326
7356000,0.0324,0.013523,0.002678,0.000431,0.026326
7357000,0.0324,0.013523,0.002678,0.000431,0.026914
7358000,0.0324,0.013523,0.002678,0.000431,0.025151
7359000,0.0324,0.013523,0.002678,0.000431,0.023506
7360000,0.0324,0.013523,0.002678,0.000431,0.027854
7361000,0.0324,0.013523,0.002678,0.000431,0.024328
7362000,0.0324,0.013523,0.002678,0.000431,0.026326
7363000,0.0324,0.013523,0.002678,0.000431,0.026444
7364000,0.0324,0.013523,0.002678,0.000431,0.025856
7365000,0.0324,0.013523,0.002678,0.000431,0.025269
7366000,0.0324,0.013523,0.002678,0.000431,0.026561
7367000,0.0324,0.013523,0.002678,0.000431,0.025034
7368000,0.0324,0.013523,0.002678,0.000431,0.025504
7369000,0.0324,0.013523,0.002678,0.000431,0.024211
7370000,0.0324,0.013523,0.002678,0.000431,0.027854
7371000,0.0324,0.013523,0.002678,0.000431,0.026091
7372000,0.0324,0.013523,0.002678,0.000431,0.025034
7373000,0.0324,0.013523,0.002678,0.000431,0.025151
7374000,0.0324,0.013523,0.002678,0.000431,0.026209
7375000,0.0324,0.013523,0.002678,0.000431,0.026561
7376000,0.0324,0.013523,0.002678,0.000431,0.027384
7377000,0.0324,0.013523,0.002678,0.000431,0.027502
7378000,0.0324,0.013523,0.002678,0.000431,0.026091
7379000,0.0324,0.013523,0.002678,0.000431,0.024446
7380000,0.0324,0.013523,0.002678,0.000431,0.027854
7381000,0.0324,0.013523,0.002678,0.000431,0.025856
7382000,0.0324,0.013523,0.002678,0.000431,0.025974
7383000,0.0324,0.013523,0.002678,0.000431,0.027619
7384000,0.0324,0.013523,0.002678,0.000431,0.025621
7385000,0.0324,0.013523,0.002678,0.000431,0.026091
7386000,0.0324,0.013523,0.002678,0.000431,0.025269
7387000,0.0324,0.013523,0.002678,0.000431,0.027737
7388000,0.0324,0.013523,0.002678,0.000431,0.023741
7389000,0.0324,0.013523,0.002678,0.000431,0.024446
7390000,0.0324,0.013523,0.002678,0.000431,0.026091
7391000,0.0324,0.013523,0.002678,0.000431,0.026796
7392000,0.0324,0.013523,0.002678,0.000431,0.027267
7393000,0.0324,0.013523,0.002678,0.000431,0.024446
7394000,0.0324,0.013523,0.002678,0.000431,0.027384
7395000,0.0324,0.013523,0.002678,0.000431,0.025621
7396000,0.0324,0.013523,0.002678,0.000431,0.026796
7397000,0.0324,0.013523,0.002678,0.000431,0.027384
7398000,0.0324,0.013523,0.002678,0.000431,0.027854
7399000,0.0324,0.013523,0.002678,0.000431,0.027031
7400000,0.0324,0.013523,0.002678,0.000431,0.026091
7401000,0.0324,0.013523,0.002678,0.000431,0.026209
7402000,0.0324,0.013523,0.002678,0.000431,0.025739
7403000,0.0324,0.013523,0.002678,0.000431,0.026209
7404000,0.0324,0.013523,0.002678,0.000431,0.025269
7405000,0.0324,0.013523,0.002678,0.000431,0.024563
7406000,0.0324,0.013523,0.002678,0.000431,0.026679
7407000,0.0324,0.013523,0.002678,0.000431,0.027854
7408000,0.0324,0.013523,0.002678,0.000431,0.024093
7409000,0.0324,0.013523,0.002678,0.000431,0.026444
7410000,0.0324,0.013523,0.002678,0.000431,0.026914
7411000,0.0324,0.013523,0.002678,0.000431,0.023506
7412000,0.0324,0.013523,0.002678,0.000431,0.025269
7413000,0.0324,0.013523,0.002678,0.000431,0.026914
7414000,0.0324,0.013523,0.002678,0.000431,0.024563
7415000,0.0324,0.013523,0.002678,0.000431,0.023388
7416000,0.0324,0.013523,0.002678,0.000431,0.024916
7417000,0.0324,0.013523,0.002678,0.000431,0.025386
7418000,0.0324,0.013523,0.002678,0.000431,0.024328
7419000,0.0324,0.013523,0.002678,0.000431,0.023623
7420000,0.0324,0.013523,0.002678,0.000431,0.025739
7421000,0.0324,0.013523,0.002678,0.000431,0.024093
7422000,0.0324,0.013523,0.002678,0.000431,0.024446
7423000,0.0324,0.013523,0.002678,0.000431,0.026561
7424000,0.0324,0.013523,0.002678,0.000431,0.026914
7425000,0.0324,0.013523,0.002678,0.000431,0.023623
7426000,0.0324,0.013523,0.002678,0.000431,0.021860
7427000,0.0324,0.013523,0.002678,0.000431,0.025856
7428000,0.0324,0.013523,0.002678,0.000431,0.025151
7429000,0.0324,0.013523,0.002678,0.000431,0.024798
7430000,0.0324,0.013523,0.002678,0.000431,0.024328
7431000,0.0324,0.013523,0.002678,0.000431,0.023976
7432000,0.0324,0.013523,0.002678,0.000431,0.024563
7433000,0.0324,0.013523,0.002678,0.000431,0.027384
7434000,0.0324,0.013523,0.002678,0.000431,0.023741
7435000,0.0324,0.013523,0.002678,0.000431,0.025151
7436000,0.0324,0.013523,0.002678,0.000431,0.024798
7437000,0.0324,0.013523,0.002678,0.000431,0.025856
7438000,0.0324,0.013523,0.002678,0.000431,0.025504
7439000,0.0324,0.013523,0.002678,0.000431,0.022565
7440000,0.0324,0.013523,0.002678,0.000431,0.027619
7441000,0.0324,0.013523,0.002678,0.000431,0.026209
7442000,0.0324,0.013523,0.002678,0.000431,0.024093
7443000,0.0324,0.013523,0.002678,0.000431,0.026326
7444000,0.0324,0.013523,0.002678,0.000431,0.024916
7445000,0.0324,0.013523,0.002678,0.000431,0.024328
7446000,0.0324,0.013523,0.002678,0.000431,0.023858
7447000,0.0324,0.013523,0.002678,0.000431,0.025151
7448000,0.0324,0.013523,0.002678,0.000431,0.025856
7449000,0.0324,0.013523,0.002678,0.000431,0.023741
7450000,0.0324,0.013523,0.002678,0.000431,0.024916
7451000,0.0324,0.013523,0.002678,0.000431,0.026561
7452000,0.0324,0.013523,0.002678,0.000431,0.024093
7453000,0.0324,0.013523,0.002678,0.000431,0.024211
7454000,0.0324,0.013523,0.002678,0.000431,0.024916
7455000,0.0324,0.013523,0.002678,0.000431,0.021390
7456000,0.0324,0.013523,0.002678,0.000431,0.023976
7457000,0.0324,0.013523,0.002678,0.000431,0.023976
7458000,0.0324,0.013523,0.002678,0.000431,0.023858
7459000,0.0324,0.013523,0.002678,0.000431,0.023506
7460000,0.0324,0.013523,0.002678,0.000431,0.024328
7461000,0.0324,0.013523,0.002678,0.000431,0.023858
7462000,0.0324,0.013523,0.002678,0.000431,0.023858
7463000,0.0324,0.013523,0.002678,0.000431,0.024093
7464000,0.0324,0.013523,0.002678,0.000431,0.024093
7465000,0.0324,0.013523,0.002678,0.000431,0.024211
7466000,0.0324,0.013523,0.002678,0.000431,0.023976
7467000,0.0324,0.013523,0.002678,0.000431,0.023388
7468000,0.0324,0.013523,0.002678,0.000431,0.024211
7469000,0.0324,0.013523,0.002678,0.000431,0.022918
7470000,0.0324,0.013523,0.002678,0.000431,0.023388
7471000,0.0324,0.013523,0.002678,0.000431,0.023388
7472000,0.0324,0.013523,0.002678,0.000431,0.023858
7473000,0.0324,0.013523,0.002678,0.000431,0.025269
7474000,0.0324,0.013523,0.002678,0.000431,0.023271
7475000,0.0324,0.013523,0.002678,0.000431,0.023388
7476000,0.0324,0.013523,0.002678,0.000431,0.025151
7477000,0.0324,0.013523,0.002678,0.000431,0.022448
7478000,0.0324,0.013523,0.002678,0.000431,0.023506
7479000,0.0324,0.013523,0.002678,0.000431,0.023388
7480000,0.0324,0.013523,0.002678,0.000431,0.024093
7481000,0.0324,0.013523,0.002678,0.000431,0.023858
7482000,0.0324,0.013523,0.002678,0.000431,0.024211
7483000,0.0324,0.013523,0.002678,0.000431,0.025269
7484000,0.0324,0.013523,0.002678,0.000431,0.023153
7485000,0.0324,0.013523,0.002678,0.000431,0.022918
7486000,0.0324,0.013523,0.002678,0.000431,0.024446
7487000,0.0324,0.013523,0.002678,0.000431,0.023976
7488000,0.0324,0.013523,0.002678,0.000431,0.025856
7489000,0.0324,0.013523,0.002678,0.000431,0.023388
7490000,0.0324,0.013523,0.002678,0.000431,0.023388
7491000,0.0324,0.013523,0.002678,0.000431,0.024211
7492000,0.0324,0.013523,0.002678,0.000431,0.022683
7493000,0.0324,0.013523,0.002678,0.000431,0.024446
7494000,0.0324,0.013523,0.002678,0.000431,0.023153
7495000,0.0324,0.013523,0.002678,0.000431,0.023271
7496000,0.0324,0.013523,0.002678,0.000431,0.024093
7497000,0.0324,0.013523,0.002678,0.000431,0.024211
7498000,0.0324,0.013523,0.002678,0.000431,0.023741
7499000,0.0324,0.013523,0.002678,0.000431,0.024916
7500000,0.0324,0.013523,0.002678,0.000431,0.023271
7501000,0.0324,0.013523,0.002678,0.000431,0.020567
7502000,0.0324,0.013523,0.002678,0.000431,0.023036
7503000,0.0324,0.013523,0.002678,0.000431,0.024916
7504000,0.0324,0.013523,0.002678,0.000431,0.023858
7505000,0.0324,0.013523,0.002678,0.000431,0.023506
7506000,0.0324,0.013523,0.002678,0.000431,0.024211
7507000,0.0324,0.013523,0.002678,0.000431,0.024681
7508000,0.0324,0.013523,0.002678,0.000431,0.025386
7509000,0.0324,0.013523,0.002678,0.000431,0.023858
7510000,0.0324,0.013523,0.002678,0.000431,0.022448
7511000,0.0324,0.013523,0.002678,0.000431,0.023506
7512000,0.0324,0.013523,0.002678,0.000431,0.024563
7513000,0.0324,0.013523,0.002678,0.000431,0.024093
7514000,0.0324,0.013523,0.002678,0.000431,0.023741
7515000,0.0324,0.013523,0.002678,0.000431,0.023858
7516000,0.0324,0.013523,0.002678,0.000431,0.022565
7517000,0.0324,0.013523,0.002678,0.000431,0.021155
7518000,0.0324,0.013523,0.002678,0.000431,0.026091
7519000,0.0324,0.013523,0.002678,0.000431,0.023271
7520000,0.0324,0.013523,0.002678,0.000431,0.023271
7521000,0.0324,0.013523,0.002678,0.000431,0.024916
7522000,0.0324,0.013523,0.002678,0.000431,0.023036
7523000,0.0324,0.013523,0.002678,0.000431,0.023858
7524000,0.0324,0.013523,0.002678,0.000431,0.022213
7525000,0.0324,0.013523,0.002678,0.000431,0.024328
7526000,0.0324,0.013523,0.002678,0.000431,0.024916
7527000,0.0324,0.013523,0.002678,0.000431,0.022918
7528000,0.0324,0.013523,0.002678,0.000431,0.024798
7529000,0.0324,0.013523,0.002678,0.000431,0.024328
7530000,0.0324,0.013523,0.002678,0.000431,0.025504
7531000,0.0324,0.013523,0.002678,0.000431,0.023388
7532000,0.0324,0.013523,0.002678,0.000431,0.023153
7533000,0.0324,0.013523,0.002678,0.000431,0.024446
7534000,0.0324,0.013523,0.002678,0.000431,0.025269
7535000,0.0324,0.013523,0.002678,0.000431,0.023623
7536000,0.0324,0.013523,0.002678,0.000431,0.023153
7537000,0.0324,0.013523,0.002678,0.000431,0.024446
7538000,0.0324,0.013523,0.002678,0.000431,0.023153
7539000,0.0324,0.013523,0.002678,0.000431,0.023623
7540000,0.0324,0.013523,0.002678,0.000431,0.022918
7541000,0.0324,0.013523,0.002678,0.000431,0.024211
7542000,0.0324,0.013523,0.002678,0.000431,0.024328
7543000,0.0324,0.013523,0.002678,0.000431,0.023506
7544000,0.0324,0.013523,0.002678,0.000431,0.024328
7545000,0.0324,0.013523,0.002678,0.000431,0.025504
7546000,0.0324,0.013523,0.002678,0.000431,0.020567
7547000,0.0324,0.013523,0.002678,0.000431,0.022095
7548000,0.0324,0.013523,0.002678,0.000431,0.025034
7549000,0.0324,0.013523,0.002678,0.000431,0.024798
7550000,0.0324,0.013523,0.002678,0.000431,0.023271
7551000,0.0324,0.013523,0.002678,0.000431,0.023388
7552000,0.0324,0.013523,0.002678,0.000431,0.025386
7553000,0.0324,0.013523,0.002678,0.000431,0.023741
7554000,0.0324,0.013523,0.002678,0.000431,0.023271
7555000,0.0324,0.013523,0.002678,0.000431,0.024093
7556000,0.0324,0.013523,0.002678,0.000431,0.024563
7557000,0.0324,0.013523,0.002678,0.000431,0.025269
7558000,0.0324,0.013523,0.002678,0.000431,0.024563
7559000,0.0324,0.013523,0.002678,0.000431,0.024093
7560000,0.0324,0.013523,0.002678,0.000431,0.022330
7561000,0.0324,0.013523,0.002678,0.000431,0.025269
7562000,0.0324,0.013523,0.002678,0.000431,0.023153
7563000,0.0324,0.013523,0.002678,0.000431,0.024211
7564000,0.0324,0.013523,0.002678,0.000431,0.025151
7565000,0.0324,0.013523,0.002678,0.000431,0.025151
7566000,0.0324,0.013523,0.002678,0.000431,0.022095
7567000,0.0324,0.013523,0.002678,0.000431,0.023858
7568000,0.0324,0.013523,0.002678,0.000431,0.024681
7569000,0.0324,0.013523,0.002678,0.000431,0.024211
7570000,0.0324,0.013523,0.002678,0.000431,0.026679
7571000,0.0324,0.013523,0.002678,0.000431,0.024093
7572000,0.0324,0.013523,0.002678,0.000431,0.023976
7573000,0.0324,0.013523,0.002678,0.000431,0.023976
7574000,0.0324,0.013523,0.002678,0.000431,0.024446
7575000,0.0324,0.013523,0.002678,0.000431,0.025974
7576000,0.0324,0.013523,0.002678,0.000431,0.023858
7577000,0.0324,0.013523,0.002678,0.000431,0.024211
7578000,0.0324,0.013523,0.002678,0.000431,0.023623
7579000,0.0324,0.013523,0.002678,0.000431,0.024916
7580000,0.0324,0.013523,0.002678,0.000431,0.023741
7581000,0.0324,0.013523,0.002678,0.000431,0.023741
7582000,0.0324,0.013523,0.002678,0.000431,0.023506
7583000,0.0324,0.013523,0.002678,0.000431,0.023623
7584000,0.0324,0.013523,0.002678,0.000431,0.024446
7585000,0.0324,0.013523,0.002678,0.000431,0.025386
7586000,0.0324,0.013523,0.002678,0.000431,0.022448
7587000,0.0324,0.013523,0.002678,0.000431,0.023741
7588000,0.0324,0.013523,0.002678,0.000431,0.024093
7589000,0.0324,0.013523,0.002678,0.000431,0.024916
7590000,0.0324,0.013523,0.002678,0.000431,0.025504
7591000,0.0324,0.013523,0.002678,0.000431,0.023506
7592000,0.0324,0.013523,0.002678,0.000431,0.023506
7593000,0.0324,0.013523,0.002678,0.000431,0.025269
7594000,0.0324,0.013523,0.002678,0.000431,0.024798
7595000,0.0324,0.013523,0.002678,0.000431,0.023623
7596000,0.0324,0.013523,0.002678,0.000431,0.023976
7597000,0.0324,0.013523,0.002678,0.000431,0.023976
7598000,0.0324,0.013523,0.002678,0.000431,0.024211
7599000,0.0324,0.013523,0.002678,0.000431,0.023506
7600000,0.0324,0.013523,0.002678,0.000431,0.025151
7601000,0.0324,0.013523,0.002678,0.000431,0.024446
7602000,0.0324,0.013523,0.002678,0.000431,0.023741
7603000,0.0324,0.013523,0.002678,0.000431,0.024681
7604000,0.0324,0.013523,0.002678,0.000431,0.024563
7605000,0.0324,0.013523,0.002678,0.000431,0.024916
7606000,0.0324,0.013523,0.002678,0.000431,0.026091
7607000,0.0324,0.013523,0.002678,0.000431,0.025034
7608000,0.0324,0.013523,0.002678,0.000431,0.023271
7609000,0.0324,0.013523,0.002678,0.000431,0.023741
7610000,0.0324,0.013523,0.002678,0.000431,0.023976
7611000,0.0324,0.013523,0.002678,0.000431,0.022683
7612000,0.0324,0.013523,0.002678,0.000431,0.024563
7613000,0.0324,0.013523,0.002678,0.000431,0.023741
7614000,0.0324,0.013523,0.002678,0.000431,0.023741
7615000,0.0324,0.013523,0.002678,0.000431,0.023036
7616000,0.0324,0.013523,0.002678,0.000431,0.023271
7617000,0.0324,0.013523,0.002678,0.000431,0.025151
7618000,0.0324,0.013523,0.002678,0.000431,0.022448
7619000,0.0324,0.013523,0.002678,0.000431,0.022918
7620000,0.0324,0.013523,0.002678,0.000431,0.023623
7621000,0.0324,0.013523,0.002678,0.000431,0.023976
7622000,0.0324,0.013523,0.002678,0.000431,0.021978
7623000,0.0324,0.013523,0.002678,0.000431,0.023858
7624000,0.0324,0.013523,0.002678,0.000431,0.022800
7625000,0.0324,0.013523,0.002678,0.000431,0.023858
7626000,0.0324,0.013523,0.002678,0.000431,0.025151
7627000,0.0324,0.013523,0.002678,0.000431,0.023623
7628000,0.0324,0.013523,0.002678,0.000431,0.021978
7629000,0.0324,0.013523,0.002678,0.000431,0.022448
7630000,0.0324,0.013523,0.002678,0.000431,0.023976
7631000,0.0324,0.013523,0.002678,0.000431,0.022918
7632000,0.0324,0.013523,0.002678,0.000431,0.023976
7633000,0.0324,0.013523,0.002678,0.000431,0.022800
7634000,0.0324,0.013523,0.002678,0.000431,0.023153
7635000,0.0324,0.013523,0.002678,0.000431,0.023858
7636000,0.0324,0.013523,0.002678,0.000431,0.023036
7637000,0.0324,0.013523,0.002678,0.000431,0.022095
7638000,0.0324,0.013523,0.002678,0.000431,0.022213
7639000,0.0324,0.013523,0.002678,0.000431,0.022683
7640000,0.0324,0.013523,0.002678,0.000431,0.025621
7641000,0.0324,0.013523,0.002678,0.000431,0.025034
7642000,0.0324,0.013523,0.002678,0.000431,0.023388
7643000,0.0324,0.013523,0.002678,0.000431,0.023271
7644000,0.0324,0.013523,0.002678,0.000431,0.022800
7645000,0.0324,0.013523,0.002678,0.000431,0.023623
7646000,0.0324,0.013523,0.002678,0.000431,0.024916
7647000,0.0324,0.013523,0.002678,0.000431,0.024798
7648000,0.0324,0.013523,0.002678,0.000431,0.023271
7649000,0.0324,0.013523,0.002678,0.000431,0.023506
7650000,0.0324,0.013523,0.002678,0.000431,0.022918
7651000,0.0324,0.013523,0.002678,0.000431,0.023741
7652000,0.0324,0.013523,0.002678,0.000431,0.024446
7653000,0.0324,0.013523,0.002678,0.000431,0.024328
7654000,0.0324,0.013523,0.002678,0.000431,0.023153
7655000,0.0324,0.013523,0.002678,0.000431,0.023036
7656000,0.0324,0.013523,0.002678,0.000431,0.024446
7657000,0.0324,0.013523,0.002678,0.000431,0.022800
7658000,0.0324,0.013523,0.002678,0.000431,0.023858
7659000,0.0324,0.013523,0.002678,0.000431,0.022683
7660000,0.0324,0.013523,0.002678,0.000431,0.021625
7661000,0.0324,0.013523,0.002678,0.000431,0.024916
7662000,0.0324,0.013523,0.002678,0.000431,0.023388
7663000,0.0324,0.013523,0.002678,0.000431,0.023976
7664000,0.0324,0.013523,0.002678,0.000431,0.024211
7665000,0.0324,0.013523,0.002678,0.000431,0.024211
7666000,0.0324,0.013523,0.002678,0.000431,0.025386
7667000,0.0324,0.013523,0.002678,0.000431,0.023153
7668000,0.0324,0.013523,0.002678,0.000431,0.024916
7669000,0.0324,0.013523,0.002678,0.000431,0.024681
7670000,0.0324,0.013523,0.002678,0.000431,0.023153
7671000,0.0324,0.013523,0.002678,0.000431,0.024798
7672000,0.0324,0.013523,0.002678,0.000431,0.022918
7673000,0.0324,0.013523,0.002678,0.000431,0.025386
7674000,0.0324,0.013523,0.002678,0.000431,0.021860
7675000,0.0324,0.013523,0.002678,0.000431,0.025386
7676000,0.0324,0.013523,0.002678,0.000431,0.025974
7677000,0.0324,0.013523,0.002678,0.000431,0.022448
7678000,0.0324,0.013523,0.002678,0.000431,0.024093
7679000,0.0324,0.013523,0.002678,0.000431,0.022918
7680000,0.0324,0.013523,0.002678,0.000431,0.023858
7681000,0.0324,0.013523,0.002678,0.000431,0.024681
7682000,0.0324,0.013523,0.002678,0.000431,0.024916
7683000,0.0324,0.013523,0.002678,0.000431,0.023858
7684000,0.0324,0.013523,0.002678,0.000431,0.022800
7685000,0.0324,0.013523,0.002678,0.000431,0.024681
7686000,0.0324,0.013523,0.002678,0.000431,0.022213
7687000,0.0324,0.013523,0.002678,0.000431,0.024093
7688000,0.0324,0.013523,0.002678,0.000431,0.023741
7689000,0.0324,0.013523,0.002678,0.000431,0.023858
7690000,0.0324,0.013523,0.002678,0.000431,0.022095
7691000,0.0324,0.013523,0.002678,0.000431,0.023388
7692000,0.0324,0.013523,0.002678,0.000431,0.023623
7693000,0.0324,0.013523,0.002678,0.000431,0.023623
7694000,0.0324,0.013523,0.002678,0.000431,0.023858
7695000,0.0324,0.013523,0.002678,0.000431,0.022918
7696000,0.0324,0.013523,0.002678,0.000431,0.023271
7697000,0.0324,0.013523,0.002678,0.000431,0.023858
7698000,0.0324,0.013523,0.002678,0.000431,0.024093
7699000,0.0324,0.013523,0.002678,0.000431,0.022918
7700000,0.0324,0.013523,0.002678,0.000431,0.022800
7701000,0.0324,0.013523,0.002678,0.000431,0.023271
7702000,0.0324,0.013523,0.002678,0.000431,0.024798
7703000,0.0324,0.013523,0.002678,0.000431,0.021978
7704000,0.0324,0.013523,0.002678,0.000431,0.024681
7705000,0.0324,0.013523,0.002678,0.000431,0.021978
7706000,0.0324,0.013523,0.002678,0.000431,0.024681
7707000,0.0324,0.013523,0.002678,0.000431,0.023388
7708000,0.0324,0.013523,0.002678,0.000431,0.024681
7709000,0.0324,0.013523,0.002678,0.000431,0.024446
7710000,0.0324,0.013523,0.002678,0.000431,0.022095
7711000,0.0324,0.013523,0.002678,0.000431,0.021743
7712000,0.0324,0.013523,0.002678,0.000431,0.024446
7713000,0.0324,0.013523,0.002678,0.000431,0.025151
7714000,0.0324,0.013523,0.002678,0.000431,0.022800
7715000,0.0324,0.013523,0.002678,0.000431,0.021038
7716000,0.0324,0.013523,0.002678,0.000431,0.024093
7717000,0.0324,0.013523,0.002678,0.000431,0.023741
7718000,0.0324,0.013523,0.002678,0.000431,0.023153
7719000,0.0324,0.013523,0.002678,0.000431,0.022448
7720000,0.0324,0.013523,0.002678,0.000431,0.021625
7721000,0.0324,0.013523,0.002678,0.000431,0.023153
7722000,0.0324,0.013523,0.002678,0.000431,0.025034
7723000,0.0324,0.013523,0.002678,0.000431,0.023388
7724000,0.0324,0.013523,0.002678,0.000431,0.022330
7725000,0.0324,0.013523,0.002678,0.000431,0.024563
7726000,0.0324,0.013523,0.002678,0.000431,0.023506
7727000,0.0324,0.013523,0.002678,0.000431,0.022448
7728000,0.0324,0.013523,0.002678,0.000431,0.023858
7729000,0.0324,0.013523,0.002678,0.000431,0.024211
7730000,0.0324,0.013523,0.002678,0.000431,0.023271
7731000,0.0324,0.013523,0.002678,0.000431,0.020685
7732000,0.0324,0.013523,0.002678,0.000431,0.022918
7733000,0.0324,0.013523,0.002678,0.000431,0.023506
7734000,0.0324,0.013523,0.002678,0.000431,0.023741
7735000,0.0324,0.013523,0.002678,0.000431,0.022800
7736000,0.0324,0.013523,0.002678,0.000431,0.023623
7737000,0.0324,0.013523,0.002678,0.000431,0.024211
7738000,0.0324,0.013523,0.002678,0.000431,0.022095
7739000,0.0324,0.013523,0.002678,0.000431,0.023858
7740000,0.0324,0.013523,0.002678,0.000431,0.023036
7741000,0.0324,0.013523,0.002678,0.000431,0.024446
7742000,0.0324,0.013523,0.002678,0.000431,0.023741
7743000,0.0324,0.013523,0.002678,0.000431,0.023976
7744000,0.0324,0.013523,0.002678,0.000431,0.023271
7745000,0.0324,0.013523,0.002678,0.000431,0.025034
7746000,0.0324,0.013523,0.002678,0.000431,0.021860
7747000,0.0324,0.013523,0.002678,0.000431,0.023271
7748000,0.0324,0.013523,0.002678,0.000431,0.022448
7749000,0.0324,0.013523,0.002678,0.000431,0.025739
7750000,0.0324,0.013523,0.002678,0.000431,0.023623
7751000,0.0324,0.013523,0.002678,0.000431,0.023271
7752000,0.0324,0.013523,0.002678,0.000431,0.022800
7753000,0.0324,0.013523,0.002678,0.000431,0.022683
7754000,0.0324,0.013523,0.002678,0.000431,0.024211
7755000,0.0324,0.013523,0.002678,0.000431,0.023506
7756000,0.0324,0.013523,0.002678,0.000431,0.023623
7757000,0.0324,0.013523,0.002678,0.000431,0.023506
7758000,0.0324,0.013523,0.002678,0.000431,0.025034
7759000,0.0324,0.013523,0.002678,0.000431,0.023153
7760000,0.0324,0.013523,0.002678,0.000431,0.022448
7761000,0.0324,0.013523,0.002678,0.000431,0.023976
7762000,0.0324,0.013523,0.002678,0.000431,0.023271
7763000,0.0324,0.013523,0.002678,0.000431,0.022800
7764000,0.0324,0.013523,0.002678,0.000431,0.025386
7765000,0.0324,0.013523,0.002678,0.000431,0.023271
7766000,0.0324,0.013523,0.002678,0.000431,0.023036
7767000,0.0324,0.013523,0.002678,0.000431,0.021860
7768000,0.0324,0.013523,0.002678,0.000431,0.023506
7769000,0.0324,0.013523,0.002678,0.000431,0.023976
7770000,0.0324,0.013523,0.002678,0.000431,0.024211
7771000,0.0324,0.013523,0.002678,0.000431,0.024563
7772000,0.0324,0.013523,0.002678,0.000431,0.024916
7773000,0.0324,0.013523,0.002678,0.000431,0.023271
7774000,0.0324,0.013523,0.002678,0.000431,0.023388
7775000,0.0324,0.013523,0.002678,0.000431,0.023036
7776000,0.0324,0.013523,0.002678,0.000431,0.022800
7777000,0.0324,0.013523,0.002678,0.000431,0.023271
7778000,0.0324,0.013523,0.002678,0.000431,0.024328
7779000,0.0324,0.013523,0.002678,0.000431,0.024446
7780000,0.0324,0.013523,0.002678,0.000431,0.022448
7781000,0.0324,0.013523,0.002678,0.000431,0.021625
7782000,0.0324,0.013523,0.002678,0.000431,0.023976
7783000,0.0324,0.013523,0.002678,0.000431,0.024211
7784000,0.0324,0.013523,0.002678,0.000431,0.023271
7785000,0.0324,0.013523,0.002678,0.000431,0.024328
7786000,0.0324,0.013523,0.002678,0.000431,0.023271
7787000,0.0324,0.013523,0.002678,0.000431,0.022448
7788000,0.0324,0.013523,0.002678,0.000431,0.024563
7789000,0.0324,0.013523,0.002678,0.000431,0.023741
7790000,0.0324,0.013523,0.002678,0.000431,0.023623
7791000,0.0324,0.013523,0.002678,0.000431,0.024681
7792000,0.0324,0.013523,0.002678,0.000431,0.022448
7793000,0.0324,0.013523,0.002678,0.000431,0.023623
7794000,0.0324,0.013523,0.002678,0.000431,0.025151
7795000,0.0324,0.013523,0.002678,0.000431,0.024681
7796000,0.0324,0.013523,0.002678,0.000431,0.024916
7797000,0.0324,0.013523,0.002678,0.000431,0.022918
7798000,0.0324,0.013523,0.002678,0.000431,0.024798
7799000,0.0324,0.013523,0.002678,0.000431,0.024093
7800000,0.0324,0.013523,0.002678,0.000431,0.022683
7801000,0.0324,0.013523,0.002678,0.000431,0.023506
7802000,0.0324,0.013523,0.002678,0.000431,0.022683
7803000,0.0324,0.013523,0.002678,0.000431,0.022565
7804000,0.0324,0.013523,0.002678,0.000431,0.024211
7805000,0.0324,0.013523,0.002678,0.000431,0.022448
7806000,0.0324,0.013523,0.002678,0.000431,0.021390
7807000,0.0324,0.013523,0.002678,0.000431,0.022683
7808000,0.0324,0.013523,0.002678,0.000431,0.024093
7809000,0.0324,0.013523,0.002678,0.000431,0.023271
7810000,0.0324,0.013523,0.002678,0.000431,0.023153
7811000,0.0324,0.013523,0.002678,0.000431,0.023858
7812000,0.0324,0.013523,0.002678,0.000431,0.022095
7813000,0.0324,0.013523,0.002678,0.000431,0.025504
7814000,0.0324,0.013523,0.002678,0.000431,0.022918
7815000,0.0324,0.013523,0.002678,0.000431,0.024798
7816000,0.0324,0.013523,0.002678,0.000431,0.023506
7817000,0.0324,0.013523,0.002678,0.000431,0.022918
7818000,0.0324,0.013523,0.002678,0.000431,0.023858
7819000,0.0324,0.013523,0.002678,0.000431,0.023623
7820000,0.0324,0.013523,0.002678,0.000431,0.022683
7821000,0.0324,0.013523,0.002678,0.000431,0.022918
7822000,0.0324,0.013523,0.002678,0.000431,0.022330
7823000,0.0324,0.013523,0.002678,0.000431,0.023271
7824000,0.0324,0.013523,0.002678,0.000431,0.023153
7825000,0.0324,0.013523,0.002678,0.000431,0.023976
7826000,0.0324,0.013523,0.002678,0.000431,0.023976
7827000,0.0324,0.013523,0.002678,0.000431,0.023036
7828000,0.0324,0.013523,0.002678,0.000431,0.023741
7829000,0.0324,0.013523,0.002678,0.000431,0.021978
7830000,0.0324,0.013523,0.002678,0.000431,0.022330
7831000,0.0324,0.013523,0.002678,0.000431,0.022918
7832000,0.0324,0.013523,0.002678,0.000431,0.021625
7833000,0.0324,0.013523,0.002678,0.000431,0.021743
7834000,0.0324,0.013523,0.002678,0.000431,0.023741
7835000,0.0324,0.013523,0.002678,0.000431,0.023153
7836000,0.0324,0.013523,0.002678,0.000431,0.020567
7837000,0.0324,0.013523,0.002678,0.000431,0.023506
7838000,0.0324,0.013523,0.002678,0.000431,0.021625
7839000,0.0324,0.013523,0.002678,0.000431,0.021390
7840000,0.0324,0.013523,0.002678,0.000431,0.021625
7841000,0.0324,0.013523,0.002678,0.000431,0.023036
7842000,0.0324,0.013523,0.002678,0.000431,0.023153
7843000,0.0324,0.013523,0.002678,0.000431,0.020215
7844000,0.0324,0.013523,0.002678,0.000431,0.024681
7845000,0.0324,0.013523,0.002678,0.000431,0.022448
7846000,0.0324,0.013523,0.002678,0.000431,0.022800
7847000,0.0324,0.013523,0.002678,0.000431,0.025386
7848000,0.0324,0.013523,0.002678,0.000431,0.022095
7849000,0.0324,0.013523,0.002678,0.000431,0.023623
7850000,0.0324,0.013523,0.002678,0.000431,0.024328
7851000,0.0324,0.013523,0.002678,0.000431,0.021273
7852000,0.0324,0.013523,0.002678,0.000431,0.021038
7853000,0.0324,0.013523,0.002678,0.000431,0.021978
7854000,0.0324,0.013523,0.002678,0.000431,0.021625
7855000,0.0324,0.013523,0.002678,0.000431,0.022565
7856000,0.0324,0.013523,0.002678,0.000431,0.021273
7857000,0.0324,0.013523,0.002678,0.000431,0.022800
7858000,0.0324,0.013523,0.002678,0.000431,0.021625
7859000,0.0324,0.013523,0.002678,0.000431,0.021038
7860000,0.0324,0.013523,0.002678,0.000431,0.023036
7861000,0.0324,0.013523,0.002678,0.000431,0.022683
7862000,0.0324,0.013523,0.002678,0.000431,0.020685
7863000,0.0324,0.013523,0.002678,0.000431,0.022330
7864000,0.0324,0.013523,0.002678,0.000431,0.021508
7865000,0.0324,0.013523,0.002678,0.000431,0.020567
7866000,0.0324,0.013523,0.002678,0.000431,0.021860
7867000,0.0324,0.013523,0.002678,0.000431,0.022800
7868000,0.0324,0.013523,0.002678,0.000431,0.020215
7869000,0.0324,0.013523,0.002678,0.000431,0.021390
7870000,0.0324,0.013523,0.002678,0.000431,0.023036
7871000,0.0324,0.013523,0.002678,0.000431,0.019980
7872000,0.0324,0.013523,0.002678,0.000431,0.020685
7873000,0.0324,0.013523,0.002678,0.000431,0.022683
7874000,0.0324,0.013523,0.002678,0.000431,0.021273
7875000,0.0324,0.013523,0.002678,0.000431,0.020685
7876000,0.0324,0.013523,0.002678,0.000431,0.021273
7877000,0.0324,0.013523,0.002678,0.000431,0.021978
7878000,0.0324,0.013523,0.002678,0.000431,0.020097
7879000,0.0324,0.013523,0.002678,0.000431,0.021273
7880000,0.0324,0.013523,0.002678,0.000431,0.021743
7881000,0.0324,0.013523,0.002678,0.000431,0.022683
7882000,0.0324,0.013523,0.002678,0.000431,0.021273
7883000,0.0324,0.013523,0.002678,0.000431,0.021038
7884000,0.0324,0.013523,0.002678,0.000431,0.019510
7885000,0.0324,0.013523,0.002678,0.000431,0.020215
7886000,0.0324,0.013523,0.002678,0.000431,0.022918
7887000,0.0324,0.013523,0.002678,0.000431,0.022213
7888000,0.0324,0.013523,0.002678,0.000431,0.021155
7889000,0.0324,0.013523,0.002678,0.000431,0.021508
7890000,0.0324,0.013523,0.002678,0.000431,0.022095
7891000,0.0324,0.013523,0.002678,0.000431,0.020332
7892000,0.0324,0.013523,0.002678,0.000431,0.020920
7893000,0.0324,0.013523,0.002678,0.000431,0.022213
7894000,0.0324,0.013523,0.002678,0.000431,0.021508
7895000,0.0324,0.013523,0.002678,0.000431,0.020685
7896000,0.0324,0.013523,0.002678,0.000431,0.023506
7897000,0.0324,0.013523,0.002678,0.000431,0.020685
7898000,0.0324,0.013523,0.002678,0.000431,0.021743
7899000,0.0324,0.013523,0.002678,0.000431,0.020685
7900000,0.0324,0.013523,0.002678,0.000431,0.022800
7901000,0.0324,0.013523,0.002678,0.000431,0.021743
7902000,0.0324,0.013523,0.002678,0.000431,0.020567
7903000,0.0324,0.013523,0.002678,0.000431,0.021508
7904000,0.0324,0.013523,0.002678,0.000431,0.021390
7905000,0.0324,0.013523,0.002678,0.000431,0.020450
7906000,0.0324,0.013523,0.002678,0.000431,0.022095
7907000,0.0324,0.013523,0.002678,0.000431,0.021038
7908000,0.0324,0.013523,0.002678,0.000431,0.021155
7909000,0.0324,0.013523,0.002678,0.000431,0.020685
7910000,0.0324,0.013523,0.002678,0.000431,0.021860
7911000,0.0324,0.013523,0.002678,0.000431,0.021508
7912000,0.0324,0.013523,0.002678,0.000431,0.020802
7913000,0.0324,0.013523,0.002678,0.000431,0.022448
7914000,0.0324,0.013523,0.002678,0.000431,0.019510
7915000,0.0324,0.013523,0.002678,0.000431,0.021155
7916000,0.0324,0.013523,0.002678,0.000431,0.021860
7917000,0.0324,0.013523,0.002678,0.000431,0.021508
7918000,0.0324,0.013523,0.002678,0.000431,0.021038
7919000,0.0324,0.013523,0.002678,0.000431,0.021155
7920000,0.0324,0.013523,0.002678,0.000431,0.019980
7921000,0.0324,0.013523,0.002678,0.000431,0.021038
7922000,0.0324,0.013523,0.002678,0.000431,0.022683
7923000,0.0324,0.013523,0.002678,0.000431,0.020567
7924000,0.0324,0.013523,0.002678,0.000431,0.020685
7925000,0.0324,0.013523,0.002678,0.000431,0.022095
7926000,0.0324,0.013523,0.002678,0.000431,0.020450
7927000,0.0324,0.013523,0.002678,0.000431,0.021273
7928000,0.0324,0.013523,0.002678,0.000431,0.020215
7929000,0.0324,0.013523,0.002678,0.000431,0.022213
7930000,0.0324,0.013523,0.002678,0.000431,0.018922
7931000,0.0324,0.013523,0.002678,0.000431,0.020802
7932000,0.0324,0.013523,0.002678,0.000431,0.022330
7933000,0.0324,0.013523,0.002678,0.000431,0.021860
7934000,0.0324,0.013523,0.002678,0.000431,0.020802
7935000,0.0324,0.013523,0.002678,0.000431,0.020450
7936000,0.0324,0.013523,0.002678,0.000431,0.023388
7937000,0.0324,0.013523,0.002678,0.000431,0.020802
7938000,0.0324,0.013523,0.002678,0.000431,0.021860
7939000,0.0324,0.013523,0.002678,0.000431,0.021273
7940000,0.0324,0.013523,0.002678,0.000431,0.019745
7941000,0.0324,0.013523,0.002678,0.000431,0.021155
7942000,0.0324,0.013523,0.002678,0.000431,0.019392
7943000,0.0324,0.013523,0.002678,0.000431,0.022565
7944000,0.0324,0.013523,0.002678,0.000431,0.021978
7945000,0.0324,0.013523,0.002678,0.000431,0.020802
7946000,0.0324,0.013523,0.002678,0.000431,0.021508
7947000,0.0324,0.013523,0.002678,0.000431,0.020450
7948000,0.0324,0.013523,0.002678,0.000431,0.021743
7949000,0.0324,0.013523,0.002678,0.000431,0.020567
7950000,0.0324,0.013523,0.002678,0.000431,0.021625
7951000,0.0324,0.013523,0.002678,0.000431,0.021273
7952000,0.0324,0.013523,0.002678,0.000431,0.020802
7953000,0.0324,0.013523,0.002678,0.000431,0.021743
7954000,0.0324,0.013523,0.002678,0.000431,0.020802
7955000,0.0324,0.013523,0.002678,0.000431,0.020920
7956000,0.0324,0.013523,0.002678,0.000431,0.020567
7957000,0.0324,0.013523,0.002678,0.000431,0.020215
7958000,0.0324,0.013523,0.002678,0.000431,0.020450
7959000,0.0324,0.013523,0.002678,0.000431,0.020920
7960000,0.0324,0.013523,0.002678,0.000431,0.020215
7961000,0.0324,0.013523,0.002678,0.000431,0.018922
7962000,0.0324,0.013523,0.002678,0.000431,0.022918
7963000,0.0324,0.013523,0.002678,0.000431,0.020450
7964000,0.0324,0.013523,0.002678,0.000431,0.019862
7965000,0.0324,0.013523,0.002678,0.000431,0.021860
7966000,0.0324,0.013523,0.002678,0.000431,0.020685
7967000,0.0324,0.013523,0.002678,0.000431,0.022330
7968000,0.0324,0.013523,0.002678,0.000431,0.021743
7969000,0.0324,0.013523,0.002678,0.000431,0.019980
7970000,0.0324,0.013523,0.002678,0.000431,0.021155
7971000,0.0324,0.013523,0.002678,0.000431,0.019510
7972000,0.0324,0.013523,0.002678,0.000431,0.022565
7973000,0.0324,0.013523,0.002678,0.000431,0.020332
7974000,0.0324,0.013523,0.002678,0.000431,0.020215
7975000,0.0324,0.013523,0.002678,0.000431,0.020450
7976000,0.0324,0.013523,0.002678,0.000431,0.020450
7977000,0.0324,0.013523,0.002678,0.000431,0.020450
7978000,0.0324,0.013523,0.002678,0.000431,0.020332
7979000,0.0324,0.013523,0.002678,0.000431,0.020567
7980000,0.0324,0.013523,0.002678,0.000431,0.018334
7981000,0.0324,0.013523,0.002678,0.000431,0.021978
7982000,0.0324,0.013523,0.002678,0.000431,0.020685
7983000,0.0324,0.013523,0.002678,0.000431,0.021508
7984000,0.0324,0.013523,0.002678,0.000431,0.020802
7985000,0.0324,0.013523,0.002678,0.000431,0.019745
7986000,0.0324,0.013523,0.002678,0.000431,0.019862
7987000,0.0324,0.013523,0.002678,0.000431,0.020567
7988000,0.0324,0.013523,0.002678,0.000431,0.020802
7989000,0.0324,0.013523,0.002678,0.000431,0.021508
7990000,0.0324,0.013523,0.002678,0.000431,0.019157
7991000,0.0324,0.013523,0.002678,0.000431,0.022095
7992000,0.0324,0.013523,0.002678,0.000431,0.021155
7993000,0.0324,0.013523,0.002678,0.000431,0.021743
7994000,0.0324,0.013523,0.002678,0.000431,0.020685
7995000,0.0324,0.013523,0.002678,0.000431,0.020802
7996000,0.0324,0.013523,0.002678,0.000431,0.021273
7997000,0.0324,0.013523,0.002678,0.000431,0.020450
7998000,0.0324,0.013523,0.002678,0.000431,0.020332
7999000,0.0324,0.013523,0.002678,0.000431,0.021625
