Cycle,Area(mm^2),PeakDynamic(W),SubthresholdLeakage(W),GateLeakage(W),RunTimeDynamic(W)
5000000,0.0324,0.013523,0.002678,0.000431,0.054063
5001000,0.0324,0.013523,0.002678,0.000431,0.055708
5002000,0.0324,0.013523,0.002678,0.000431,0.052535
5003000,0.0324,0.013523,0.002678,0.000431,0.053005
5004000,0.0324,0.013523,0.002678,0.000431,0.053593
5005000,0.0324,0.013523,0.002678,0.000431,0.055003
5006000,0.0324,0.013523,0.002678,0.000431,0.052888
5007000,0.0324,0.013523,0.002678,0.000431,0.052418
5008000,0.0324,0.013523,0.002678,0.000431,0.053358
5009000,0.0324,0.013523,0.002678,0.000431,0.055591
5010000,0.0324,0.013523,0.002678,0.000431,0.052300
5011000,0.0324,0.013523,0.002678,0.000431,0.051007
5012000,0.0324,0.013523,0.002678,0.000431,0.053828
5013000,0.0324,0.013523,0.002678,0.000431,0.058059
5014000,0.0324,0.013523,0.002678,0.000431,0.054416
5015000,0.0324,0.013523,0.002678,0.000431,0.051242
5016000,0.0324,0.013523,0.002678,0.000431,0.052888
5017000,0.0324,0.013523,0.002678,0.000431,0.055356
5018000,0.0324,0.013523,0.002678,0.000431,0.056414
5019000,0.0324,0.013523,0.002678,0.000431,0.052888
5020000,0.0324,0.013523,0.002678,0.000431,0.051947
5021000,0.0324,0.013523,0.002678,0.000431,0.051830
5022000,0.0324,0.013523,0.002678,0.000431,0.054180
5023000,0.0324,0.013523,0.002678,0.000431,0.054651
5024000,0.0324,0.013523,0.002678,0.000431,0.053475
5025000,0.0324,0.013523,0.002678,0.000431,0.053005
5026000,0.0324,0.013523,0.002678,0.000431,0.054886
5027000,0.0324,0.013523,0.002678,0.000431,0.054063
5028000,0.0324,0.013523,0.002678,0.000431,0.051242
5029000,0.0324,0.013523,0.002678,0.000431,0.051125
5030000,0.0324,0.013523,0.002678,0.000431,0.054886
5031000,0.0324,0.013523,0.002678,0.000431,0.053005
5032000,0.0324,0.013523,0.002678,0.000431,0.052888
5033000,0.0324,0.013523,0.002678,0.000431,0.055943
5034000,0.0324,0.013523,0.002678,0.000431,0.050537
5035000,0.0324,0.013523,0.002678,0.000431,0.056766
5036000,0.0324,0.013523,0.002678,0.000431,0.054298
5037000,0.0324,0.013523,0.002678,0.000431,0.052888
5038000,0.0324,0.013523,0.002678,0.000431,0.055003
5039000,0.0324,0.013523,0.002678,0.000431,0.053593
5040000,0.0324,0.013523,0.002678,0.000431,0.055708
5041000,0.0324,0.013523,0.002678,0.000431,0.051125
5042000,0.0324,0.013523,0.002678,0.000431,0.050420
5043000,0.0324,0.013523,0.002678,0.000431,0.054886
5044000,0.0324,0.013523,0.002678,0.000431,0.051125
5045000,0.0324,0.013523,0.002678,0.000431,0.052535
5046000,0.0324,0.013523,0.002678,0.000431,0.053358
5047000,0.0324,0.013523,0.002678,0.000431,0.053593
5048000,0.0324,0.013523,0.002678,0.000431,0.051125
5049000,0.0324,0.013523,0.002678,0.000431,0.053475
5050000,0.0324,0.013523,0.002678,0.000431,0.054063
5051000,0.0324,0.013523,0.002678,0.000431,0.054651
5052000,0.0324,0.013523,0.002678,0.000431,0.053123
5053000,0.0324,0.013523,0.002678,0.000431,0.052535
5054000,0.0324,0.013523,0.002678,0.000431,0.054886
5055000,0.0324,0.013523,0.002678,0.000431,0.052183
5056000,0.0324,0.013523,0.002678,0.000431,0.053475
5057000,0.0324,0.013523,0.002678,0.000431,0.054651
5058000,0.0324,0.013523,0.002678,0.000431,0.050067
5059000,0.0324,0.013523,0.002678,0.000431,0.053828
5060000,0.0324,0.013523,0.002678,0.000431,0.055826
5061000,0.0324,0.013523,0.002678,0.000431,0.050420
5062000,0.0324,0.013523,0.002678,0.000431,0.051595
5063000,0.0324,0.013523,0.002678,0.000431,0.054180
5064000,0.0324,0.013523,0.002678,0.000431,0.051830
5065000,0.0324,0.013523,0.002678,0.000431,0.052418
5066000,0.0324,0.013523,0.002678,0.000431,0.053240
5067000,0.0324,0.013523,0.002678,0.000431,0.055943
5068000,0.0324,0.013523,0.002678,0.000431,0.052300
5069000,0.0324,0.013523,0.002678,0.000431,0.052770
5070000,0.0324,0.013523,0.002678,0.000431,0.052535
5071000,0.0324,0.013523,0.002678,0.000431,0.053828
5072000,0.0324,0.013523,0.002678,0.000431,0.052418
5073000,0.0324,0.013523,0.002678,0.000431,0.054886
5074000,0.0324,0.013523,0.002678,0.000431,0.051830
5075000,0.0324,0.013523,0.002678,0.000431,0.054180
5076000,0.0324,0.013523,0.002678,0.000431,0.053710
5077000,0.0324,0.013523,0.002678,0.000431,0.054651
5078000,0.0324,0.013523,0.002678,0.000431,0.053593
5079000,0.0324,0.013523,0.002678,0.000431,0.051360
5080000,0.0324,0.013523,0.002678,0.000431,0.049714
5081000,0.0324,0.013523,0.002678,0.000431,0.052770
5082000,0.0324,0.013523,0.002678,0.000431,0.055121
5083000,0.0324,0.013523,0.002678,0.000431,0.051830
5084000,0.0324,0.013523,0.002678,0.000431,0.053358
5085000,0.0324,0.013523,0.002678,0.000431,0.051712
5086000,0.0324,0.013523,0.002678,0.000431,0.054180
5087000,0.0324,0.013523,0.002678,0.000431,0.051712
5088000,0.0324,0.013523,0.002678,0.000431,0.051007
5089000,0.0324,0.013523,0.002678,0.000431,0.053475
5090000,0.0324,0.013523,0.002678,0.000431,0.055591
5091000,0.0324,0.013523,0.002678,0.000431,0.050302
5092000,0.0324,0.013523,0.002678,0.000431,0.053828
5093000,0.0324,0.013523,0.002678,0.000431,0.054298
5094000,0.0324,0.013523,0.002678,0.000431,0.052418
5095000,0.0324,0.013523,0.002678,0.000431,0.050772
5096000,0.0324,0.013523,0.002678,0.000431,0.049244
5097000,0.0324,0.013523,0.002678,0.000431,0.051007
5098000,0.0324,0.013523,0.002678,0.000431,0.052065
5099000,0.0324,0.013523,0.002678,0.000431,0.051712
5100000,0.0324,0.013523,0.002678,0.000431,0.051947
5101000,0.0324,0.013523,0.002678,0.000431,0.052418
5102000,0.0324,0.013523,0.002678,0.000431,0.053475
5103000,0.0324,0.013523,0.002678,0.000431,0.052770
5104000,0.0324,0.013523,0.002678,0.000431,0.047246
5105000,0.0324,0.013523,0.002678,0.000431,0.054063
5106000,0.0324,0.013523,0.002678,0.000431,0.052653
5107000,0.0324,0.013523,0.002678,0.000431,0.051947
5108000,0.0324,0.013523,0.002678,0.000431,0.051477
5109000,0.0324,0.013523,0.002678,0.000431,0.051595
5110000,0.0324,0.013523,0.002678,0.000431,0.053475
5111000,0.0324,0.013523,0.002678,0.000431,0.052183
5112000,0.0324,0.013523,0.002678,0.000431,0.050067
5113000,0.0324,0.013523,0.002678,0.000431,0.050890
5114000,0.0324,0.013523,0.002678,0.000431,0.053593
5115000,0.0324,0.013523,0.002678,0.000431,0.052300
5116000,0.0324,0.013523,0.002678,0.000431,0.051830
5117000,0.0324,0.013523,0.002678,0.000431,0.053710
5118000,0.0324,0.013523,0.002678,0.000431,0.053123
5119000,0.0324,0.013523,0.002678,0.000431,0.052183
5120000,0.0324,0.013523,0.002678,0.000431,0.052535
5121000,0.0324,0.013523,0.002678,0.000431,0.053593
5122000,0.0324,0.013523,0.002678,0.000431,0.053358
5123000,0.0324,0.013523,0.002678,0.000431,0.052065
5124000,0.0324,0.013523,0.002678,0.000431,0.053828
5125000,0.0324,0.013523,0.002678,0.000431,0.051477
5126000,0.0324,0.013523,0.002678,0.000431,0.050655
5127000,0.0324,0.013523,0.002678,0.000431,0.051360
5128000,0.0324,0.013523,0.002678,0.000431,0.053828
5129000,0.0324,0.013523,0.002678,0.000431,0.052065
5130000,0.0324,0.013523,0.002678,0.000431,0.050655
5131000,0.0324,0.013523,0.002678,0.000431,0.049009
5132000,0.0324,0.013523,0.002678,0.000431,0.049127
5133000,0.0324,0.013523,0.002678,0.000431,0.050890
5134000,0.0324,0.013523,0.002678,0.000431,0.052888
5135000,0.0324,0.013523,0.002678,0.000431,0.051007
5136000,0.0324,0.013523,0.002678,0.000431,0.049832
5137000,0.0324,0.013523,0.002678,0.000431,0.054180
5138000,0.0324,0.013523,0.002678,0.000431,0.050772
5139000,0.0324,0.013523,0.002678,0.000431,0.052300
5140000,0.0324,0.013523,0.002678,0.000431,0.052183
5141000,0.0324,0.013523,0.002678,0.000431,0.050420
5142000,0.0324,0.013523,0.002678,0.000431,0.052535
5143000,0.0324,0.013523,0.002678,0.000431,0.054416
5144000,0.0324,0.013523,0.002678,0.000431,0.049832
5145000,0.0324,0.013523,0.002678,0.000431,0.049127
5146000,0.0324,0.013523,0.002678,0.000431,0.052535
5147000,0.0324,0.013523,0.002678,0.000431,0.056178
5148000,0.0324,0.013523,0.002678,0.000431,0.051947
5149000,0.0324,0.013523,0.002678,0.000431,0.052065
5150000,0.0324,0.013523,0.002678,0.000431,0.051360
5151000,0.0324,0.013523,0.002678,0.000431,0.056414
5152000,0.0324,0.013523,0.002678,0.000431,0.049597
5153000,0.0324,0.013523,0.002678,0.000431,0.051242
5154000,0.0324,0.013523,0.002678,0.000431,0.051712
5155000,0.0324,0.013523,0.002678,0.000431,0.050772
5156000,0.0324,0.013523,0.002678,0.000431,0.053123
5157000,0.0324,0.013523,0.002678,0.000431,0.051242
5158000,0.0324,0.013523,0.002678,0.000431,0.051125
5159000,0.0324,0.013523,0.002678,0.000431,0.052065
5160000,0.0324,0.013523,0.002678,0.000431,0.051125
5161000,0.0324,0.013523,0.002678,0.000431,0.051360
5162000,0.0324,0.013523,0.002678,0.000431,0.051595
5163000,0.0324,0.013523,0.002678,0.000431,0.052065
5164000,0.0324,0.013523,0.002678,0.000431,0.051125
5165000,0.0324,0.013523,0.002678,0.000431,0.053358
5166000,0.0324,0.013523,0.002678,0.000431,0.048892
5167000,0.0324,0.013523,0.002678,0.000431,0.054063
5168000,0.0324,0.013523,0.002678,0.000431,0.053593
5169000,0.0324,0.013523,0.002678,0.000431,0.048422
5170000,0.0324,0.013523,0.002678,0.000431,0.050302
5171000,0.0324,0.013523,0.002678,0.000431,0.052535
5172000,0.0324,0.013523,0.002678,0.000431,0.054651
5173000,0.0324,0.013523,0.002678,0.000431,0.050067
5174000,0.0324,0.013523,0.002678,0.000431,0.050890
5175000,0.0324,0.013523,0.002678,0.000431,0.052770
5176000,0.0324,0.013523,0.002678,0.000431,0.052888
5177000,0.0324,0.013523,0.002678,0.000431,0.050890
5178000,0.0324,0.013523,0.002678,0.000431,0.053005
5179000,0.0324,0.013523,0.002678,0.000431,0.052653
5180000,0.0324,0.013523,0.002678,0.000431,0.054768
5181000,0.0324,0.013523,0.002678,0.000431,0.050420
5182000,0.0324,0.013523,0.002678,0.000431,0.053593
5183000,0.0324,0.013523,0.002678,0.000431,0.052183
5184000,0.0324,0.013523,0.002678,0.000431,0.056178
5185000,0.0324,0.013523,0.002678,0.000431,0.048657
5186000,0.0324,0.013523,0.002678,0.000431,0.051595
5187000,0.0324,0.013523,0.002678,0.000431,0.049832
5188000,0.0324,0.013523,0.002678,0.000431,0.053005
5189000,0.0324,0.013523,0.002678,0.000431,0.050185
5190000,0.0324,0.013523,0.002678,0.000431,0.052653
5191000,0.0324,0.013523,0.002678,0.000431,0.052300
5192000,0.0324,0.013523,0.002678,0.000431,0.048657
5193000,0.0324,0.013523,0.002678,0.000431,0.053358
5194000,0.0324,0.013523,0.002678,0.000431,0.050772
5195000,0.0324,0.013523,0.002678,0.000431,0.051595
5196000,0.0324,0.013523,0.002678,0.000431,0.053240
5197000,0.0324,0.013523,0.002678,0.000431,0.050537
5198000,0.0324,0.013523,0.002678,0.000431,0.049597
5199000,0.0324,0.013523,0.002678,0.000431,0.053240
5200000,0.0324,0.013523,0.002678,0.000431,0.051242
5201000,0.0324,0.013523,0.002678,0.000431,0.054886
5202000,0.0324,0.013523,0.002678,0.000431,0.049479
5203000,0.0324,0.013523,0.002678,0.000431,0.049597
5204000,0.0324,0.013523,0.002678,0.000431,0.054533
5205000,0.0324,0.013523,0.002678,0.000431,0.054886
5206000,0.0324,0.013523,0.002678,0.000431,0.048657
5207000,0.0324,0.013523,0.002678,0.000431,0.049362
5208000,0.0324,0.013523,0.002678,0.000431,0.050537
5209000,0.0324,0.013523,0.002678,0.000431,0.051477
5210000,0.0324,0.013523,0.002678,0.000431,0.051477
5211000,0.0324,0.013523,0.002678,0.000431,0.051477
5212000,0.0324,0.013523,0.002678,0.000431,0.050067
5213000,0.0324,0.013523,0.002678,0.000431,0.053123
5214000,0.0324,0.013523,0.002678,0.000431,0.050772
5215000,0.0324,0.013523,0.002678,0.000431,0.053593
5216000,0.0324,0.013523,0.002678,0.000431,0.051712
5217000,0.0324,0.013523,0.002678,0.000431,0.051477
5218000,0.0324,0.013523,0.002678,0.000431,0.050772
5219000,0.0324,0.013523,0.002678,0.000431,0.049714
5220000,0.0324,0.013523,0.002678,0.000431,0.052065
5221000,0.0324,0.013523,0.002678,0.000431,0.053475
5222000,0.0324,0.013523,0.002678,0.000431,0.050302
5223000,0.0324,0.013523,0.002678,0.000431,0.048069
5224000,0.0324,0.013523,0.002678,0.000431,0.051125
5225000,0.0324,0.013523,0.002678,0.000431,0.053945
5226000,0.0324,0.013523,0.002678,0.000431,0.051360
5227000,0.0324,0.013523,0.002678,0.000431,0.051712
5228000,0.0324,0.013523,0.002678,0.000431,0.051712
5229000,0.0324,0.013523,0.002678,0.000431,0.052418
5230000,0.0324,0.013523,0.002678,0.000431,0.049479
5231000,0.0324,0.013523,0.002678,0.000431,0.051712
5232000,0.0324,0.013523,0.002678,0.000431,0.052418
5233000,0.0324,0.013523,0.002678,0.000431,0.054886
5234000,0.0324,0.013523,0.002678,0.000431,0.048422
5235000,0.0324,0.013523,0.002678,0.000431,0.049832
5236000,0.0324,0.013523,0.002678,0.000431,0.051360
5237000,0.0324,0.013523,0.002678,0.000431,0.052183
5238000,0.0324,0.013523,0.002678,0.000431,0.052065
5239000,0.0324,0.013523,0.002678,0.000431,0.051477
5240000,0.0324,0.013523,0.002678,0.000431,0.048304
5241000,0.0324,0.013523,0.002678,0.000431,0.052535
5242000,0.0324,0.013523,0.002678,0.000431,0.048657
5243000,0.0324,0.013523,0.002678,0.000431,0.050302
5244000,0.0324,0.013523,0.002678,0.000431,0.052065
5245000,0.0324,0.013523,0.002678,0.000431,0.048657
5246000,0.0324,0.013523,0.002678,0.000431,0.049479
5247000,0.0324,0.013523,0.002678,0.000431,0.048892
5248000,0.0324,0.013523,0.002678,0.000431,0.051125
5249000,0.0324,0.013523,0.002678,0.000431,0.049949
5250000,0.0324,0.013523,0.002678,0.000431,0.050890
5251000,0.0324,0.013523,0.002678,0.000431,0.049362
5252000,0.0324,0.013523,0.002678,0.000431,0.049832
5253000,0.0324,0.013523,0.002678,0.000431,0.050772
5254000,0.0324,0.013523,0.002678,0.000431,0.051712
5255000,0.0324,0.013523,0.002678,0.000431,0.047834
5256000,0.0324,0.013523,0.002678,0.000431,0.047011
5257000,0.0324,0.013523,0.002678,0.000431,0.051242
5258000,0.0324,0.013523,0.002678,0.000431,0.050185
5259000,0.0324,0.013523,0.002678,0.000431,0.050772
5260000,0.0324,0.013523,0.002678,0.000431,0.048422
5261000,0.0324,0.013523,0.002678,0.000431,0.048069
5262000,0.0324,0.013523,0.002678,0.000431,0.052300
5263000,0.0324,0.013523,0.002678,0.000431,0.048187
5264000,0.0324,0.013523,0.002678,0.000431,0.047599
5265000,0.0324,0.013523,0.002678,0.000431,0.051947
5266000,0.0324,0.013523,0.002678,0.000431,0.047481
5267000,0.0324,0.013523,0.002678,0.000431,0.048657
5268000,0.0324,0.013523,0.002678,0.000431,0.050537
5269000,0.0324,0.013523,0.002678,0.000431,0.053475
5270000,0.0324,0.013523,0.002678,0.000431,0.049127
5271000,0.0324,0.013523,0.002678,0.000431,0.050067
5272000,0.0324,0.013523,0.002678,0.000431,0.049949
5273000,0.0324,0.013523,0.002678,0.000431,0.049479
5274000,0.0324,0.013523,0.002678,0.000431,0.048774
5275000,0.0324,0.013523,0.002678,0.000431,0.052065
5276000,0.0324,0.013523,0.002678,0.000431,0.052770
5277000,0.0324,0.013523,0.002678,0.000431,0.051242
5278000,0.0324,0.013523,0.002678,0.000431,0.048892
5279000,0.0324,0.013523,0.002678,0.000431,0.051830
5280000,0.0324,0.013523,0.002678,0.000431,0.050655
5281000,0.0324,0.013523,0.002678,0.000431,0.051477
5282000,0.0324,0.013523,0.002678,0.000431,0.048304
5283000,0.0324,0.013523,0.002678,0.000431,0.049949
5284000,0.0324,0.013523,0.002678,0.000431,0.048304
5285000,0.0324,0.013523,0.002678,0.000431,0.050420
5286000,0.0324,0.013523,0.002678,0.000431,0.050655
5287000,0.0324,0.013523,0.002678,0.000431,0.049244
5288000,0.0324,0.013523,0.002678,0.000431,0.050772
5289000,0.0324,0.013523,0.002678,0.000431,0.051712
5290000,0.0324,0.013523,0.002678,0.000431,0.049597
5291000,0.0324,0.013523,0.002678,0.000431,0.049127
5292000,0.0324,0.013523,0.002678,0.000431,0.052183
5293000,0.0324,0.013523,0.002678,0.000431,0.049009
5294000,0.0324,0.013523,0.002678,0.000431,0.050890
5295000,0.0324,0.013523,0.002678,0.000431,0.050067
5296000,0.0324,0.013523,0.002678,0.000431,0.051007
5297000,0.0324,0.013523,0.002678,0.000431,0.051477
5298000,0.0324,0.013523,0.002678,0.000431,0.047246
5299000,0.0324,0.013523,0.002678,0.000431,0.048539
5300000,0.0324,0.013523,0.002678,0.000431,0.049949
5301000,0.0324,0.013523,0.002678,0.000431,0.047951
5302000,0.0324,0.013523,0.002678,0.000431,0.050302
5303000,0.0324,0.013523,0.002678,0.000431,0.050772
5304000,0.0324,0.013523,0.002678,0.000431,0.050302
5305000,0.0324,0.013523,0.002678,0.000431,0.053475
5306000,0.0324,0.013523,0.002678,0.000431,0.048539
5307000,0.0324,0.013523,0.002678,0.000431,0.047951
5308000,0.0324,0.013523,0.002678,0.000431,0.049832
5309000,0.0324,0.013523,0.002678,0.000431,0.055121
5310000,0.0324,0.013523,0.002678,0.000431,0.047951
5311000,0.0324,0.013523,0.002678,0.000431,0.048304
5312000,0.0324,0.013523,0.002678,0.000431,0.051712
5313000,0.0324,0.013523,0.002678,0.000431,0.050655
5314000,0.0324,0.013523,0.002678,0.000431,0.052183
5315000,0.0324,0.013523,0.002678,0.000431,0.046541
5316000,0.0324,0.013523,0.002678,0.000431,0.051947
5317000,0.0324,0.013523,0.002678,0.000431,0.047364
5318000,0.0324,0.013523,0.002678,0.000431,0.049362
5319000,0.0324,0.013523,0.002678,0.000431,0.049949
5320000,0.0324,0.013523,0.002678,0.000431,0.050185
5321000,0.0324,0.013523,0.002678,0.000431,0.050420
5322000,0.0324,0.013523,0.002678,0.000431,0.049127
5323000,0.0324,0.013523,0.002678,0.000431,0.051007
5324000,0.0324,0.013523,0.002678,0.000431,0.054180
5325000,0.0324,0.013523,0.002678,0.000431,0.048539
5326000,0.0324,0.013523,0.002678,0.000431,0.049009
5327000,0.0324,0.013523,0.002678,0.000431,0.052183
5328000,0.0324,0.013523,0.002678,0.000431,0.051595
5329000,0.0324,0.013523,0.002678,0.000431,0.048892
5330000,0.0324,0.013523,0.002678,0.000431,0.050302
5331000,0.0324,0.013523,0.002678,0.000431,0.049949
5332000,0.0324,0.013523,0.002678,0.000431,0.051712
5333000,0.0324,0.013523,0.002678,0.000431,0.047246
5334000,0.0324,0.013523,0.002678,0.000431,0.048069
5335000,0.0324,0.013523,0.002678,0.000431,0.049949
5336000,0.0324,0.013523,0.002678,0.000431,0.052418
5337000,0.0324,0.013523,0.002678,0.000431,0.049009
5338000,0.0324,0.013523,0.002678,0.000431,0.047011
5339000,0.0324,0.013523,0.002678,0.000431,0.050772
5340000,0.0324,0.013523,0.002678,0.000431,0.053710
5341000,0.0324,0.013523,0.002678,0.000431,0.050655
5342000,0.0324,0.013523,0.002678,0.000431,0.048539
5343000,0.0324,0.013523,0.002678,0.000431,0.050772
5344000,0.0324,0.013523,0.002678,0.000431,0.051595
5345000,0.0324,0.013523,0.002678,0.000431,0.050890
5346000,0.0324,0.013523,0.002678,0.000431,0.050420
5347000,0.0324,0.013523,0.002678,0.000431,0.048187
5348000,0.0324,0.013523,0.002678,0.000431,0.054180
5349000,0.0324,0.013523,0.002678,0.000431,0.047481
5350000,0.0324,0.013523,0.002678,0.000431,0.049244
5351000,0.0324,0.013523,0.002678,0.000431,0.050890
5352000,0.0324,0.013523,0.002678,0.000431,0.051007
5353000,0.0324,0.013523,0.002678,0.000431,0.047716
5354000,0.0324,0.013523,0.002678,0.000431,0.050890
5355000,0.0324,0.013523,0.002678,0.000431,0.052770
5356000,0.0324,0.013523,0.002678,0.000431,0.054063
5357000,0.0324,0.013523,0.002678,0.000431,0.051595
5358000,0.0324,0.013523,0.002678,0.000431,0.048774
5359000,0.0324,0.013523,0.002678,0.000431,0.047481
5360000,0.0324,0.013523,0.002678,0.000431,0.052300
5361000,0.0324,0.013523,0.002678,0.000431,0.049479
5362000,0.0324,0.013523,0.002678,0.000431,0.047599
5363000,0.0324,0.013523,0.002678,0.000431,0.052770
5364000,0.0324,0.013523,0.002678,0.000431,0.049949
5365000,0.0324,0.013523,0.002678,0.000431,0.047011
5366000,0.0324,0.013523,0.002678,0.000431,0.052065
5367000,0.0324,0.013523,0.002678,0.000431,0.050185
5368000,0.0324,0.013523,0.002678,0.000431,0.049949
5369000,0.0324,0.013523,0.002678,0.000431,0.051595
5370000,0.0324,0.013523,0.002678,0.000431,0.048892
5371000,0.0324,0.013523,0.002678,0.000431,0.053358
5372000,0.0324,0.013523,0.002678,0.000431,0.047834
5373000,0.0324,0.013523,0.002678,0.000431,0.049714
5374000,0.0324,0.013523,0.002678,0.000431,0.050655
5375000,0.0324,0.013523,0.002678,0.000431,0.050302
5376000,0.0324,0.013523,0.002678,0.000431,0.049127
5377000,0.0324,0.013523,0.002678,0.000431,0.048187
5378000,0.0324,0.013523,0.002678,0.000431,0.049832
5379000,0.0324,0.013523,0.002678,0.000431,0.050890
5380000,0.0324,0.013523,0.002678,0.000431,0.046659
5381000,0.0324,0.013523,0.002678,0.000431,0.048539
5382000,0.0324,0.013523,0.002678,0.000431,0.048187
5383000,0.0324,0.013523,0.002678,0.000431,0.045954
5384000,0.0324,0.013523,0.002678,0.000431,0.047599
5385000,0.0324,0.013523,0.002678,0.000431,0.048422
5386000,0.0324,0.013523,0.002678,0.000431,0.050537
5387000,0.0324,0.013523,0.002678,0.000431,0.051242
5388000,0.0324,0.013523,0.002678,0.000431,0.047951
5389000,0.0324,0.013523,0.002678,0.000431,0.047599
5390000,0.0324,0.013523,0.002678,0.000431,0.049714
5391000,0.0324,0.013523,0.002678,0.000431,0.052418
5392000,0.0324,0.013523,0.002678,0.000431,0.049362
5393000,0.0324,0.013523,0.002678,0.000431,0.049127
5394000,0.0324,0.013523,0.002678,0.000431,0.052183
5395000,0.0324,0.013523,0.002678,0.000431,0.050420
5396000,0.0324,0.013523,0.002678,0.000431,0.048422
5397000,0.0324,0.013523,0.002678,0.000431,0.050067
5398000,0.0324,0.013523,0.002678,0.000431,0.053475
5399000,0.0324,0.013523,0.002678,0.000431,0.047716
5400000,0.0324,0.013523,0.002678,0.000431,0.050067
5401000,0.0324,0.013523,0.002678,0.000431,0.047481
5402000,0.0324,0.013523,0.002678,0.000431,0.052770
5403000,0.0324,0.013523,0.002678,0.000431,0.048069
5404000,0.0324,0.013523,0.002678,0.000431,0.050185
5405000,0.0324,0.013523,0.002678,0.000431,0.047951
5406000,0.0324,0.013523,0.002678,0.000431,0.051477
5407000,0.0324,0.013523,0.002678,0.000431,0.052418
5408000,0.0324,0.013523,0.002678,0.000431,0.049832
5409000,0.0324,0.013523,0.002678,0.000431,0.048657
5410000,0.0324,0.013523,0.002678,0.000431,0.050185
5411000,0.0324,0.013523,0.002678,0.000431,0.048187
5412000,0.0324,0.013523,0.002678,0.000431,0.048187
5413000,0.0324,0.013523,0.002678,0.000431,0.050185
5414000,0.0324,0.013523,0.002678,0.000431,0.049009
5415000,0.0324,0.013523,0.002678,0.000431,0.046659
5416000,0.0324,0.013523,0.002678,0.000431,0.051125
5417000,0.0324,0.013523,0.002678,0.000431,0.047599
5418000,0.0324,0.013523,0.002678,0.000431,0.048774
5419000,0.0324,0.013523,0.002678,0.000431,0.047951
5420000,0.0324,0.013523,0.002678,0.000431,0.047011
5421000,0.0324,0.013523,0.002678,0.000431,0.048892
5422000,0.0324,0.013523,0.002678,0.000431,0.049832
5423000,0.0324,0.013523,0.002678,0.000431,0.049597
5424000,0.0324,0.013523,0.002678,0.000431,0.049597
5425000,0.0324,0.013523,0.002678,0.000431,0.047599
5426000,0.0324,0.013523,0.002678,0.000431,0.050302
5427000,0.0324,0.013523,0.002678,0.000431,0.049009
5428000,0.0324,0.013523,0.002678,0.000431,0.050890
5429000,0.0324,0.013523,0.002678,0.000431,0.048539
5430000,0.0324,0.013523,0.002678,0.000431,0.051477
5431000,0.0324,0.013523,0.002678,0.000431,0.047951
5432000,0.0324,0.013523,0.002678,0.000431,0.051712
5433000,0.0324,0.013523,0.002678,0.000431,0.048187
5434000,0.0324,0.013523,0.002678,0.000431,0.049127
5435000,0.0324,0.013523,0.002678,0.000431,0.047951
5436000,0.0324,0.013523,0.002678,0.000431,0.050302
5437000,0.0324,0.013523,0.002678,0.000431,0.050185
5438000,0.0324,0.013523,0.002678,0.000431,0.050067
5439000,0.0324,0.013523,0.002678,0.000431,0.048774
5440000,0.0324,0.013523,0.002678,0.000431,0.050420
5441000,0.0324,0.013523,0.002678,0.000431,0.047364
5442000,0.0324,0.013523,0.002678,0.000431,0.049949
5443000,0.0324,0.013523,0.002678,0.000431,0.048187
5444000,0.0324,0.013523,0.002678,0.000431,0.049009
5445000,0.0324,0.013523,0.002678,0.000431,0.050420
5446000,0.0324,0.013523,0.002678,0.000431,0.046306
5447000,0.0324,0.013523,0.002678,0.000431,0.046541
5448000,0.0324,0.013523,0.002678,0.000431,0.050890
5449000,0.0324,0.013523,0.002678,0.000431,0.050067
5450000,0.0324,0.013523,0.002678,0.000431,0.048539
5451000,0.0324,0.013523,0.002678,0.000431,0.049832
5452000,0.0324,0.013523,0.002678,0.000431,0.047481
5453000,0.0324,0.013523,0.002678,0.000431,0.048422
5454000,0.0324,0.013523,0.002678,0.000431,0.049479
5455000,0.0324,0.013523,0.002678,0.000431,0.047599
5456000,0.0324,0.013523,0.002678,0.000431,0.047716
5457000,0.0324,0.013523,0.002678,0.000431,0.050655
5458000,0.0324,0.013523,0.002678,0.000431,0.047481
5459000,0.0324,0.013523,0.002678,0.000431,0.047364
5460000,0.0324,0.013523,0.002678,0.000431,0.048892
5461000,0.0324,0.013523,0.002678,0.000431,0.050890
5462000,0.0324,0.013523,0.002678,0.000431,0.046189
5463000,0.0324,0.013523,0.002678,0.000431,0.046189
5464000,0.0324,0.013523,0.002678,0.000431,0.051242
5465000,0.0324,0.013523,0.002678,0.000431,0.047951
5466000,0.0324,0.013523,0.002678,0.000431,0.045836
5467000,0.0324,0.013523,0.002678,0.000431,0.046776
5468000,0.0324,0.013523,0.002678,0.000431,0.046424
5469000,0.0324,0.013523,0.002678,0.000431,0.051477
5470000,0.0324,0.013523,0.002678,0.000431,0.047716
5471000,0.0324,0.013523,0.002678,0.000431,0.044426
5472000,0.0324,0.013523,0.002678,0.000431,0.046424
5473000,0.0324,0.013523,0.002678,0.000431,0.050067
5474000,0.0324,0.013523,0.002678,0.000431,0.047364
5475000,0.0324,0.013523,0.002678,0.000431,0.046071
5476000,0.0324,0.013523,0.002678,0.000431,0.048069
5477000,0.0324,0.013523,0.002678,0.000431,0.047716
5478000,0.0324,0.013523,0.002678,0.000431,0.048422
5479000,0.0324,0.013523,0.002678,0.000431,0.046894
5480000,0.0324,0.013523,0.002678,0.000431,0.052418
5481000,0.0324,0.013523,0.002678,0.000431,0.049832
5482000,0.0324,0.013523,0.002678,0.000431,0.049244
5483000,0.0324,0.013523,0.002678,0.000431,0.046071
5484000,0.0324,0.013523,0.002678,0.000431,0.047716
5485000,0.0324,0.013523,0.002678,0.000431,0.049127
5486000,0.0324,0.013523,0.002678,0.000431,0.046424
5487000,0.0324,0.013523,0.002678,0.000431,0.046071
5488000,0.0324,0.013523,0.002678,0.000431,0.046894
5489000,0.0324,0.013523,0.002678,0.000431,0.049949
5490000,0.0324,0.013523,0.002678,0.000431,0.045131
5491000,0.0324,0.013523,0.002678,0.000431,0.049009
5492000,0.0324,0.013523,0.002678,0.000431,0.048069
5493000,0.0324,0.013523,0.002678,0.000431,0.047951
5494000,0.0324,0.013523,0.002678,0.000431,0.047129
5495000,0.0324,0.013523,0.002678,0.000431,0.049009
5496000,0.0324,0.013523,0.002678,0.000431,0.048304
5497000,0.0324,0.013523,0.002678,0.000431,0.047481
5498000,0.0324,0.013523,0.002678,0.000431,0.048657
5499000,0.0324,0.013523,0.002678,0.000431,0.045601
5500000,0.0324,0.013523,0.002678,0.000431,0.051125
5501000,0.0324,0.013523,0.002678,0.000431,0.050537
5502000,0.0324,0.013523,0.002678,0.000431,0.045248
5503000,0.0324,0.013523,0.002678,0.000431,0.047364
5504000,0.0324,0.013523,0.002678,0.000431,0.045366
5505000,0.0324,0.013523,0.002678,0.000431,0.045013
5506000,0.0324,0.013523,0.002678,0.000431,0.048774
5507000,0.0324,0.013523,0.002678,0.000431,0.045013
5508000,0.0324,0.013523,0.002678,0.000431,0.047951
5509000,0.0324,0.013523,0.002678,0.000431,0.046189
5510000,0.0324,0.013523,0.002678,0.000431,0.044308
5511000,0.0324,0.013523,0.002678,0.000431,0.045483
5512000,0.0324,0.013523,0.002678,0.000431,0.051360
5513000,0.0324,0.013523,0.002678,0.000431,0.044896
5514000,0.0324,0.013523,0.002678,0.000431,0.046894
5515000,0.0324,0.013523,0.002678,0.000431,0.049362
5516000,0.0324,0.013523,0.002678,0.000431,0.047011
5517000,0.0324,0.013523,0.002678,0.000431,0.047834
5518000,0.0324,0.013523,0.002678,0.000431,0.046659
5519000,0.0324,0.013523,0.002678,0.000431,0.048657
5520000,0.0324,0.013523,0.002678,0.000431,0.048539
5521000,0.0324,0.013523,0.002678,0.000431,0.047129
5522000,0.0324,0.013523,0.002678,0.000431,0.047129
5523000,0.0324,0.013523,0.002678,0.000431,0.046776
5524000,0.0324,0.013523,0.002678,0.000431,0.047364
5525000,0.0324,0.013523,0.002678,0.000431,0.048539
5526000,0.0324,0.013523,0.002678,0.000431,0.046541
5527000,0.0324,0.013523,0.002678,0.000431,0.045248
5528000,0.0324,0.013523,0.002678,0.000431,0.047481
5529000,0.0324,0.013523,0.002678,0.000431,0.044778
5530000,0.0324,0.013523,0.002678,0.000431,0.049362
5531000,0.0324,0.013523,0.002678,0.000431,0.047129
5532000,0.0324,0.013523,0.002678,0.000431,0.051477
5533000,0.0324,0.013523,0.002678,0.000431,0.046894
5534000,0.0324,0.013523,0.002678,0.000431,0.045131
5535000,0.0324,0.013523,0.002678,0.000431,0.049479
5536000,0.0324,0.013523,0.002678,0.000431,0.047834
5537000,0.0324,0.013523,0.002678,0.000431,0.045836
5538000,0.0324,0.013523,0.002678,0.000431,0.048657
5539000,0.0324,0.013523,0.002678,0.000431,0.049127
5540000,0.0324,0.013523,0.002678,0.000431,0.048657
5541000,0.0324,0.013523,0.002678,0.000431,0.045718
5542000,0.0324,0.013523,0.002678,0.000431,0.047599
5543000,0.0324,0.013523,0.002678,0.000431,0.046071
5544000,0.0324,0.013523,0.002678,0.000431,0.049949
5545000,0.0324,0.013523,0.002678,0.000431,0.048657
5546000,0.0324,0.013523,0.002678,0.000431,0.047716
5547000,0.0324,0.013523,0.002678,0.000431,0.046071
5548000,0.0324,0.013523,0.002678,0.000431,0.047011
5549000,0.0324,0.013523,0.002678,0.000431,0.045248
5550000,0.0324,0.013523,0.002678,0.000431,0.047481
5551000,0.0324,0.013523,0.002678,0.000431,0.045601
5552000,0.0324,0.013523,0.002678,0.000431,0.049009
5553000,0.0324,0.013523,0.002678,0.000431,0.045248
5554000,0.0324,0.013523,0.002678,0.000431,0.046541
5555000,0.0324,0.013523,0.002678,0.000431,0.048539
5556000,0.0324,0.013523,0.002678,0.000431,0.046306
5557000,0.0324,0.013523,0.002678,0.000431,0.047951
5558000,0.0324,0.013523,0.002678,0.000431,0.045131
5559000,0.0324,0.013523,0.002678,0.000431,0.049009
5560000,0.0324,0.013523,0.002678,0.000431,0.047246
5561000,0.0324,0.013523,0.002678,0.000431,0.044543
5562000,0.0324,0.013523,0.002678,0.000431,0.047129
5563000,0.0324,0.013523,0.002678,0.000431,0.047246
5564000,0.0324,0.013523,0.002678,0.000431,0.048187
5565000,0.0324,0.013523,0.002678,0.000431,0.046424
5566000,0.0324,0.013523,0.002678,0.000431,0.045483
5567000,0.0324,0.013523,0.002678,0.000431,0.047129
5568000,0.0324,0.013523,0.002678,0.000431,0.047716
5569000,0.0324,0.013523,0.002678,0.000431,0.046541
5570000,0.0324,0.013523,0.002678,0.000431,0.044661
5571000,0.0324,0.013523,0.002678,0.000431,0.049127
5572000,0.0324,0.013523,0.002678,0.000431,0.048774
5573000,0.0324,0.013523,0.002678,0.000431,0.048187
5574000,0.0324,0.013523,0.002678,0.000431,0.045718
5575000,0.0324,0.013523,0.002678,0.000431,0.047246
5576000,0.0324,0.013523,0.002678,0.000431,0.048187
5577000,0.0324,0.013523,0.002678,0.000431,0.046306
5578000,0.0324,0.013523,0.002678,0.000431,0.048187
5579000,0.0324,0.013523,0.002678,0.000431,0.047246
5580000,0.0324,0.013523,0.002678,0.000431,0.043368
5581000,0.0324,0.013523,0.002678,0.000431,0.044308
5582000,0.0324,0.013523,0.002678,0.000431,0.047129
5583000,0.0324,0.013523,0.002678,0.000431,0.047246
5584000,0.0324,0.013523,0.002678,0.000431,0.046424
5585000,0.0324,0.013523,0.002678,0.000431,0.047481
5586000,0.0324,0.013523,0.002678,0.000431,0.046659
5587000,0.0324,0.013523,0.002678,0.000431,0.047716
5588000,0.0324,0.013523,0.002678,0.000431,0.046541
5589000,0.0324,0.013523,0.002678,0.000431,0.048539
5590000,0.0324,0.013523,0.002678,0.000431,0.048657
5591000,0.0324,0.013523,0.002678,0.000431,0.043485
5592000,0.0324,0.013523,0.002678,0.000431,0.048069
5593000,0.0324,0.013523,0.002678,0.000431,0.045954
5594000,0.0324,0.013523,0.002678,0.000431,0.047129
5595000,0.0324,0.013523,0.002678,0.000431,0.047951
5596000,0.0324,0.013523,0.002678,0.000431,0.043838
5597000,0.0324,0.013523,0.002678,0.000431,0.047011
5598000,0.0324,0.013523,0.002678,0.000431,0.045248
5599000,0.0324,0.013523,0.002678,0.000431,0.046659
5600000,0.0324,0.013523,0.002678,0.000431,0.048539
5601000,0.0324,0.013523,0.002678,0.000431,0.044661
5602000,0.0324,0.013523,0.002678,0.000431,0.047364
5603000,0.0324,0.013523,0.002678,0.000431,0.048892
5604000,0.0324,0.013523,0.002678,0.000431,0.046071
5605000,0.0324,0.013523,0.002678,0.000431,0.047364
5606000,0.0324,0.013523,0.002678,0.000431,0.046424
5607000,0.0324,0.013523,0.002678,0.000431,0.047599
5608000,0.0324,0.013523,0.002678,0.000431,0.045601
5609000,0.0324,0.013523,0.002678,0.000431,0.048774
5610000,0.0324,0.013523,0.002678,0.000431,0.047011
5611000,0.0324,0.013523,0.002678,0.000431,0.047951
5612000,0.0324,0.013523,0.002678,0.000431,0.045131
5613000,0.0324,0.013523,0.002678,0.000431,0.047129
5614000,0.0324,0.013523,0.002678,0.000431,0.046189
5615000,0.0324,0.013523,0.002678,0.000431,0.049479
5616000,0.0324,0.013523,0.002678,0.000431,0.047364
5617000,0.0324,0.013523,0.002678,0.000431,0.045013
5618000,0.0324,0.013523,0.002678,0.000431,0.047364
5619000,0.0324,0.013523,0.002678,0.000431,0.047716
5620000,0.0324,0.013523,0.002678,0.000431,0.046071
5621000,0.0324,0.013523,0.002678,0.000431,0.047364
5622000,0.0324,0.013523,0.002678,0.000431,0.046189
5623000,0.0324,0.013523,0.002678,0.000431,0.046071
5624000,0.0324,0.013523,0.002678,0.000431,0.045601
5625000,0.0324,0.013523,0.002678,0.000431,0.045483
5626000,0.0324,0.013523,0.002678,0.000431,0.047129
5627000,0.0324,0.013523,0.002678,0.000431,0.047129
5628000,0.0324,0.013523,0.002678,0.000431,0.044896
5629000,0.0324,0.013523,0.002678,0.000431,0.046541
5630000,0.0324,0.013523,0.002678,0.000431,0.045483
5631000,0.0324,0.013523,0.002678,0.000431,0.045954
5632000,0.0324,0.013523,0.002678,0.000431,0.043485
5633000,0.0324,0.013523,0.002678,0.000431,0.047129
5634000,0.0324,0.013523,0.002678,0.000431,0.047246
5635000,0.0324,0.013523,0.002678,0.000431,0.049832
5636000,0.0324,0.013523,0.002678,0.000431,0.045483
5637000,0.0324,0.013523,0.002678,0.000431,0.046541
5638000,0.0324,0.013523,0.002678,0.000431,0.045131
5639000,0.0324,0.013523,0.002678,0.000431,0.047129
5640000,0.0324,0.013523,0.002678,0.000431,0.045601
5641000,0.0324,0.013523,0.002678,0.000431,0.046306
5642000,0.0324,0.013523,0.002678,0.000431,0.047951
5643000,0.0324,0.013523,0.002678,0.000431,0.048422
5644000,0.0324,0.013523,0.002678,0.000431,0.042663
5645000,0.0324,0.013523,0.002678,0.000431,0.045836
5646000,0.0324,0.013523,0.002678,0.000431,0.046189
5647000,0.0324,0.013523,0.002678,0.000431,0.049949
5648000,0.0324,0.013523,0.002678,0.000431,0.046776
5649000,0.0324,0.013523,0.002678,0.000431,0.047129
5650000,0.0324,0.013523,0.002678,0.000431,0.048539
5651000,0.0324,0.013523,0.002678,0.000431,0.045836
5652000,0.0324,0.013523,0.002678,0.000431,0.047129
5653000,0.0324,0.013523,0.002678,0.000431,0.048304
5654000,0.0324,0.013523,0.002678,0.000431,0.042663
5655000,0.0324,0.013523,0.002678,0.000431,0.046306
5656000,0.0324,0.013523,0.002678,0.000431,0.047481
5657000,0.0324,0.013523,0.002678,0.000431,0.045601
5658000,0.0324,0.013523,0.002678,0.000431,0.049009
5659000,0.0324,0.013523,0.002678,0.000431,0.046424
5660000,0.0324,0.013523,0.002678,0.000431,0.043015
5661000,0.0324,0.013523,0.002678,0.000431,0.046541
5662000,0.0324,0.013523,0.002678,0.000431,0.048892
5663000,0.0324,0.013523,0.002678,0.000431,0.046306
5664000,0.0324,0.013523,0.002678,0.000431,0.042898
5665000,0.0324,0.013523,0.002678,0.000431,0.045248
5666000,0.0324,0.013523,0.002678,0.000431,0.050655
5667000,0.0324,0.013523,0.002678,0.000431,0.048187
5668000,0.0324,0.013523,0.002678,0.000431,0.045013
5669000,0.0324,0.013523,0.002678,0.000431,0.045836
5670000,0.0324,0.013523,0.002678,0.000431,0.045013
5671000,0.0324,0.013523,0.002678,0.000431,0.046306
5672000,0.0324,0.013523,0.002678,0.000431,0.044778
5673000,0.0324,0.013523,0.002678,0.000431,0.047481
5674000,0.0324,0.013523,0.002678,0.000431,0.045836
5675000,0.0324,0.013523,0.002678,0.000431,0.044308
5676000,0.0324,0.013523,0.002678,0.000431,0.044426
5677000,0.0324,0.013523,0.002678,0.000431,0.045366
5678000,0.0324,0.013523,0.002678,0.000431,0.045248
5679000,0.0324,0.013523,0.002678,0.000431,0.043603
5680000,0.0324,0.013523,0.002678,0.000431,0.044308
5681000,0.0324,0.013523,0.002678,0.000431,0.043720
5682000,0.0324,0.013523,0.002678,0.000431,0.046541
5683000,0.0324,0.013523,0.002678,0.000431,0.046424
5684000,0.0324,0.013523,0.002678,0.000431,0.045718
5685000,0.0324,0.013523,0.002678,0.000431,0.044308
5686000,0.0324,0.013523,0.002678,0.000431,0.045248
5687000,0.0324,0.013523,0.002678,0.000431,0.048422
5688000,0.0324,0.013523,0.002678,0.000431,0.043485
5689000,0.0324,0.013523,0.002678,0.000431,0.043956
5690000,0.0324,0.013523,0.002678,0.000431,0.043133
5691000,0.0324,0.013523,0.002678,0.000431,0.046541
5692000,0.0324,0.013523,0.002678,0.000431,0.044543
5693000,0.0324,0.013523,0.002678,0.000431,0.044191
5694000,0.0324,0.013523,0.002678,0.000431,0.047599
5695000,0.0324,0.013523,0.002678,0.000431,0.043603
5696000,0.0324,0.013523,0.002678,0.000431,0.043250
5697000,0.0324,0.013523,0.002678,0.000431,0.043838
5698000,0.0324,0.013523,0.002678,0.000431,0.044778
5699000,0.0324,0.013523,0.002678,0.000431,0.047364
5700000,0.0324,0.013523,0.002678,0.000431,0.044778
5701000,0.0324,0.013523,0.002678,0.000431,0.043250
5702000,0.0324,0.013523,0.002678,0.000431,0.044896
5703000,0.0324,0.013523,0.002678,0.000431,0.044191
5704000,0.0324,0.013523,0.002678,0.000431,0.043838
5705000,0.0324,0.013523,0.002678,0.000431,0.046776
5706000,0.0324,0.013523,0.002678,0.000431,0.045013
5707000,0.0324,0.013523,0.002678,0.000431,0.045366
5708000,0.0324,0.013523,0.002678,0.000431,0.044896
5709000,0.0324,0.013523,0.002678,0.000431,0.041605
5710000,0.0324,0.013523,0.002678,0.000431,0.043603
5711000,0.0324,0.013523,0.002678,0.000431,0.043603
5712000,0.0324,0.013523,0.002678,0.000431,0.045954
5713000,0.0324,0.013523,0.002678,0.000431,0.046659
5714000,0.0324,0.013523,0.002678,0.000431,0.046424
5715000,0.0324,0.013523,0.002678,0.000431,0.046894
5716000,0.0324,0.013523,0.002678,0.000431,0.043720
5717000,0.0324,0.013523,0.002678,0.000431,0.043956
5718000,0.0324,0.013523,0.002678,0.000431,0.045248
5719000,0.0324,0.013523,0.002678,0.000431,0.045248
5720000,0.0324,0.013523,0.002678,0.000431,0.045248
5721000,0.0324,0.013523,0.002678,0.000431,0.043956
5722000,0.0324,0.013523,0.002678,0.000431,0.049244
5723000,0.0324,0.013523,0.002678,0.000431,0.044661
5724000,0.0324,0.013523,0.002678,0.000431,0.045131
5725000,0.0324,0.013523,0.002678,0.000431,0.043133
5726000,0.0324,0.013523,0.002678,0.000431,0.047129
5727000,0.0324,0.013523,0.002678,0.000431,0.045954
5728000,0.0324,0.013523,0.002678,0.000431,0.044426
5729000,0.0324,0.013523,0.002678,0.000431,0.044426
5730000,0.0324,0.013523,0.002678,0.000431,0.045483
5731000,0.0324,0.013523,0.002678,0.000431,0.044543
5732000,0.0324,0.013523,0.002678,0.000431,0.043015
5733000,0.0324,0.013523,0.002678,0.000431,0.047481
5734000,0.0324,0.013523,0.002678,0.000431,0.045601
5735000,0.0324,0.013523,0.002678,0.000431,0.044426
5736000,0.0324,0.013523,0.002678,0.000431,0.043838
5737000,0.0324,0.013523,0.002678,0.000431,0.045836
5738000,0.0324,0.013523,0.002678,0.000431,0.045836
5739000,0.0324,0.013523,0.002678,0.000431,0.044896
5740000,0.0324,0.013523,0.002678,0.000431,0.044191
5741000,0.0324,0.013523,0.002678,0.000431,0.044543
5742000,0.0324,0.013523,0.002678,0.000431,0.047129
5743000,0.0324,0.013523,0.002678,0.000431,0.045483
5744000,0.0324,0.013523,0.002678,0.000431,0.043133
5745000,0.0324,0.013523,0.002678,0.000431,0.044073
5746000,0.0324,0.013523,0.002678,0.000431,0.046424
5747000,0.0324,0.013523,0.002678,0.000431,0.042780
5748000,0.0324,0.013523,0.002678,0.000431,0.043720
5749000,0.0324,0.013523,0.002678,0.000431,0.045366
5750000,0.0324,0.013523,0.002678,0.000431,0.046659
5751000,0.0324,0.013523,0.002678,0.000431,0.046071
5752000,0.0324,0.013523,0.002678,0.000431,0.045601
5753000,0.0324,0.013523,0.002678,0.000431,0.045248
5754000,0.0324,0.013523,0.002678,0.000431,0.044896
5755000,0.0324,0.013523,0.002678,0.000431,0.044778
5756000,0.0324,0.013523,0.002678,0.000431,0.046071
5757000,0.0324,0.013523,0.002678,0.000431,0.045836
5758000,0.0324,0.013523,0.002678,0.000431,0.043603
5759000,0.0324,0.013523,0.002678,0.000431,0.046424
5760000,0.0324,0.013523,0.002678,0.000431,0.044073
5761000,0.0324,0.013523,0.002678,0.000431,0.043838
5762000,0.0324,0.013523,0.002678,0.000431,0.044073
5763000,0.0324,0.013523,0.002678,0.000431,0.044661
5764000,0.0324,0.013523,0.002678,0.000431,0.043250
5765000,0.0324,0.013523,0.002678,0.000431,0.042898
5766000,0.0324,0.013523,0.002678,0.000431,0.047129
5767000,0.0324,0.013523,0.002678,0.000431,0.044896
5768000,0.0324,0.013523,0.002678,0.000431,0.041840
5769000,0.0324,0.013523,0.002678,0.000431,0.048187
5770000,0.0324,0.013523,0.002678,0.000431,0.045366
5771000,0.0324,0.013523,0.002678,0.000431,0.044073
5772000,0.0324,0.013523,0.002678,0.000431,0.042428
5773000,0.0324,0.013523,0.002678,0.000431,0.046541
5774000,0.0324,0.013523,0.002678,0.000431,0.042545
5775000,0.0324,0.013523,0.002678,0.000431,0.044073
5776000,0.0324,0.013523,0.002678,0.000431,0.040782
5777000,0.0324,0.013523,0.002678,0.000431,0.044191
5778000,0.0324,0.013523,0.002678,0.000431,0.043838
5779000,0.0324,0.013523,0.002678,0.000431,0.043485
5780000,0.0324,0.013523,0.002678,0.000431,0.047481
5781000,0.0324,0.013523,0.002678,0.000431,0.043250
5782000,0.0324,0.013523,0.002678,0.000431,0.042663
5783000,0.0324,0.013523,0.002678,0.000431,0.043250
5784000,0.0324,0.013523,0.002678,0.000431,0.047129
5785000,0.0324,0.013523,0.002678,0.000431,0.044661
5786000,0.0324,0.013523,0.002678,0.000431,0.044543
5787000,0.0324,0.013523,0.002678,0.000431,0.043838
5788000,0.0324,0.013523,0.002678,0.000431,0.043720
5789000,0.0324,0.013523,0.002678,0.000431,0.044426
5790000,0.0324,0.013523,0.002678,0.000431,0.045601
5791000,0.0324,0.013523,0.002678,0.000431,0.042780
5792000,0.0324,0.013523,0.002678,0.000431,0.044661
5793000,0.0324,0.013523,0.002678,0.000431,0.040665
5794000,0.0324,0.013523,0.002678,0.000431,0.046776
5795000,0.0324,0.013523,0.002678,0.000431,0.041840
5796000,0.0324,0.013523,0.002678,0.000431,0.043133
5797000,0.0324,0.013523,0.002678,0.000431,0.042545
5798000,0.0324,0.013523,0.002678,0.000431,0.044426
5799000,0.0324,0.013523,0.002678,0.000431,0.042428
5800000,0.0324,0.013523,0.002678,0.000431,0.044191
5801000,0.0324,0.013523,0.002678,0.000431,0.045366
5802000,0.0324,0.013523,0.002678,0.000431,0.044073
5803000,0.0324,0.013523,0.002678,0.000431,0.044426
5804000,0.0324,0.013523,0.002678,0.000431,0.044543
5805000,0.0324,0.013523,0.002678,0.000431,0.045248
5806000,0.0324,0.013523,0.002678,0.000431,0.041840
5807000,0.0324,0.013523,0.002678,0.000431,0.042663
5808000,0.0324,0.013523,0.002678,0.000431,0.045131
5809000,0.0324,0.013523,0.002678,0.000431,0.044778
5810000,0.0324,0.013523,0.002678,0.000431,0.043368
5811000,0.0324,0.013523,0.002678,0.000431,0.043015
5812000,0.0324,0.013523,0.002678,0.000431,0.041487
5813000,0.0324,0.013523,0.002678,0.000431,0.046071
5814000,0.0324,0.013523,0.002678,0.000431,0.045013
5815000,0.0324,0.013523,0.002678,0.000431,0.043015
5816000,0.0324,0.013523,0.002678,0.000431,0.044191
5817000,0.0324,0.013523,0.002678,0.000431,0.044308
5818000,0.0324,0.013523,0.002678,0.000431,0.043250
5819000,0.0324,0.013523,0.002678,0.000431,0.044073
5820000,0.0324,0.013523,0.002678,0.000431,0.042193
5821000,0.0324,0.013523,0.002678,0.000431,0.046776
5822000,0.0324,0.013523,0.002678,0.000431,0.044308
5823000,0.0324,0.013523,0.002678,0.000431,0.041840
5824000,0.0324,0.013523,0.002678,0.000431,0.043133
5825000,0.0324,0.013523,0.002678,0.000431,0.043956
5826000,0.0324,0.013523,0.002678,0.000431,0.044543
5827000,0.0324,0.013523,0.002678,0.000431,0.042898
5828000,0.0324,0.013523,0.002678,0.000431,0.041840
5829000,0.0324,0.013523,0.002678,0.000431,0.046189
5830000,0.0324,0.013523,0.002678,0.000431,0.044191
5831000,0.0324,0.013523,0.002678,0.000431,0.045836
5832000,0.0324,0.013523,0.002678,0.000431,0.042193
5833000,0.0324,0.013523,0.002678,0.000431,0.041723
5834000,0.0324,0.013523,0.002678,0.000431,0.042310
5835000,0.0324,0.013523,0.002678,0.000431,0.042428
5836000,0.0324,0.013523,0.002678,0.000431,0.042898
5837000,0.0324,0.013523,0.002678,0.000431,0.044073
5838000,0.0324,0.013523,0.002678,0.000431,0.039842
5839000,0.0324,0.013523,0.002678,0.000431,0.039960
5840000,0.0324,0.013523,0.002678,0.000431,0.041605
5841000,0.0324,0.013523,0.002678,0.000431,0.045836
5842000,0.0324,0.013523,0.002678,0.000431,0.043133
5843000,0.0324,0.013523,0.002678,0.000431,0.039725
5844000,0.0324,0.013523,0.002678,0.000431,0.042898
5845000,0.0324,0.013523,0.002678,0.000431,0.042780
5846000,0.0324,0.013523,0.002678,0.000431,0.039960
5847000,0.0324,0.013523,0.002678,0.000431,0.042310
5848000,0.0324,0.013523,0.002678,0.000431,0.042545
5849000,0.0324,0.013523,0.002678,0.000431,0.043015
5850000,0.0324,0.013523,0.002678,0.000431,0.042075
5851000,0.0324,0.013523,0.002678,0.000431,0.042428
5852000,0.0324,0.013523,0.002678,0.000431,0.043133
5853000,0.0324,0.013523,0.002678,0.000431,0.044191
5854000,0.0324,0.013523,0.002678,0.000431,0.039489
5855000,0.0324,0.013523,0.002678,0.000431,0.042545
5856000,0.0324,0.013523,0.002678,0.000431,0.039607
5857000,0.0324,0.013523,0.002678,0.000431,0.042545
5858000,0.0324,0.013523,0.002678,0.000431,0.040782
5859000,0.0324,0.013523,0.002678,0.000431,0.041605
5860000,0.0324,0.013523,0.002678,0.000431,0.040900
5861000,0.0324,0.013523,0.002678,0.000431,0.044661
5862000,0.0324,0.013523,0.002678,0.000431,0.039372
5863000,0.0324,0.013523,0.002678,0.000431,0.043133
5864000,0.0324,0.013523,0.002678,0.000431,0.042545
5865000,0.0324,0.013523,0.002678,0.000431,0.041135
5866000,0.0324,0.013523,0.002678,0.000431,0.041723
5867000,0.0324,0.013523,0.002678,0.000431,0.044191
5868000,0.0324,0.013523,0.002678,0.000431,0.043133
5869000,0.0324,0.013523,0.002678,0.000431,0.041723
5870000,0.0324,0.013523,0.002678,0.000431,0.041135
5871000,0.0324,0.013523,0.002678,0.000431,0.040195
5872000,0.0324,0.013523,0.002678,0.000431,0.045366
5873000,0.0324,0.013523,0.002678,0.000431,0.042193
5874000,0.0324,0.013523,0.002678,0.000431,0.040665
5875000,0.0324,0.013523,0.002678,0.000431,0.040195
5876000,0.0324,0.013523,0.002678,0.000431,0.041135
5877000,0.0324,0.013523,0.002678,0.000431,0.042780
5878000,0.0324,0.013523,0.002678,0.000431,0.041487
5879000,0.0324,0.013523,0.002678,0.000431,0.043250
5880000,0.0324,0.013523,0.002678,0.000431,0.040312
5881000,0.0324,0.013523,0.002678,0.000431,0.041958
5882000,0.0324,0.013523,0.002678,0.000431,0.043956
5883000,0.0324,0.013523,0.002678,0.000431,0.040900
5884000,0.0324,0.013523,0.002678,0.000431,0.041252
5885000,0.0324,0.013523,0.002678,0.000431,0.040900
5886000,0.0324,0.013523,0.002678,0.000431,0.041135
5887000,0.0324,0.013523,0.002678,0.000431,0.041252
5888000,0.0324,0.013523,0.002678,0.000431,0.041605
5889000,0.0324,0.013523,0.002678,0.000431,0.043956
5890000,0.0324,0.013523,0.002678,0.000431,0.040077
5891000,0.0324,0.013523,0.002678,0.000431,0.040195
5892000,0.0324,0.013523,0.002678,0.000431,0.039137
5893000,0.0324,0.013523,0.002678,0.000431,0.044073
5894000,0.0324,0.013523,0.002678,0.000431,0.039725
5895000,0.0324,0.013523,0.002678,0.000431,0.040547
5896000,0.0324,0.013523,0.002678,0.000431,0.039842
5897000,0.0324,0.013523,0.002678,0.000431,0.041723
5898000,0.0324,0.013523,0.002678,0.000431,0.044426
5899000,0.0324,0.013523,0.002678,0.000431,0.040900
5900000,0.0324,0.013523,0.002678,0.000431,0.039489
5901000,0.0324,0.013523,0.002678,0.000431,0.042428
5902000,0.0324,0.013523,0.002678,0.000431,0.043838
5903000,0.0324,0.013523,0.002678,0.000431,0.041605
5904000,0.0324,0.013523,0.002678,0.000431,0.041017
5905000,0.0324,0.013523,0.002678,0.000431,0.043485
5906000,0.0324,0.013523,0.002678,0.000431,0.043368
5907000,0.0324,0.013523,0.002678,0.000431,0.040077
5908000,0.0324,0.013523,0.002678,0.000431,0.039607
5909000,0.0324,0.013523,0.002678,0.000431,0.041487
5910000,0.0324,0.013523,0.002678,0.000431,0.039960
5911000,0.0324,0.013523,0.002678,0.000431,0.041135
5912000,0.0324,0.013523,0.002678,0.000431,0.040430
5913000,0.0324,0.013523,0.002678,0.000431,0.041840
5914000,0.0324,0.013523,0.002678,0.000431,0.041605
5915000,0.0324,0.013523,0.002678,0.000431,0.038667
5916000,0.0324,0.013523,0.002678,0.000431,0.041135
5917000,0.0324,0.013523,0.002678,0.000431,0.039960
5918000,0.0324,0.013523,0.002678,0.000431,0.040077
5919000,0.0324,0.013523,0.002678,0.000431,0.041840
5920000,0.0324,0.013523,0.002678,0.000431,0.039960
5921000,0.0324,0.013523,0.002678,0.000431,0.039607
5922000,0.0324,0.013523,0.002678,0.000431,0.040665
5923000,0.0324,0.013523,0.002678,0.000431,0.040665
5924000,0.0324,0.013523,0.002678,0.000431,0.041840
5925000,0.0324,0.013523,0.002678,0.000431,0.041252
5926000,0.0324,0.013523,0.002678,0.000431,0.040430
5927000,0.0324,0.013523,0.002678,0.000431,0.037727
5928000,0.0324,0.013523,0.002678,0.000431,0.040430
5929000,0.0324,0.013523,0.002678,0.000431,0.039960
5930000,0.0324,0.013523,0.002678,0.000431,0.039842
5931000,0.0324,0.013523,0.002678,0.000431,0.039489
5932000,0.0324,0.013523,0.002678,0.000431,0.039489
5933000,0.0324,0.013523,0.002678,0.000431,0.042193
5934000,0.0324,0.013523,0.002678,0.000431,0.039372
5935000,0.0324,0.013523,0.002678,0.000431,0.039254
5936000,0.0324,0.013523,0.002678,0.000431,0.041370
5937000,0.0324,0.013523,0.002678,0.000431,0.039254
5938000,0.0324,0.013523,0.002678,0.000431,0.041723
5939000,0.0324,0.013523,0.002678,0.000431,0.039960
5940000,0.0324,0.013523,0.002678,0.000431,0.038902
5941000,0.0324,0.013523,0.002678,0.000431,0.039960
5942000,0.0324,0.013523,0.002678,0.000431,0.039842
5943000,0.0324,0.013523,0.002678,0.000431,0.039725
5944000,0.0324,0.013523,0.002678,0.000431,0.040900
5945000,0.0324,0.013523,0.002678,0.000431,0.037021
5946000,0.0324,0.013523,0.002678,0.000431,0.042780
5947000,0.0324,0.013523,0.002678,0.000431,0.040195
5948000,0.0324,0.013523,0.002678,0.000431,0.039607
5949000,0.0324,0.013523,0.002678,0.000431,0.043133
5950000,0.0324,0.013523,0.002678,0.000431,0.041487
5951000,0.0324,0.013523,0.002678,0.000431,0.039137
5952000,0.0324,0.013523,0.002678,0.000431,0.038549
5953000,0.0324,0.013523,0.002678,0.000431,0.039489
5954000,0.0324,0.013523,0.002678,0.000431,0.041840
5955000,0.0324,0.013523,0.002678,0.000431,0.038902
5956000,0.0324,0.013523,0.002678,0.000431,0.040665
5957000,0.0324,0.013523,0.002678,0.000431,0.039254
5958000,0.0324,0.013523,0.002678,0.000431,0.041840
5959000,0.0324,0.013523,0.002678,0.000431,0.040547
5960000,0.0324,0.013523,0.002678,0.000431,0.037962
5961000,0.0324,0.013523,0.002678,0.000431,0.038667
5962000,0.0324,0.013523,0.002678,0.000431,0.041840
5963000,0.0324,0.013523,0.002678,0.000431,0.040665
5964000,0.0324,0.013523,0.002678,0.000431,0.039960
5965000,0.0324,0.013523,0.002678,0.000431,0.042075
5966000,0.0324,0.013523,0.002678,0.000431,0.040665
5967000,0.0324,0.013523,0.002678,0.000431,0.038314
5968000,0.0324,0.013523,0.002678,0.000431,0.037139
5969000,0.0324,0.013523,0.002678,0.000431,0.040077
5970000,0.0324,0.013523,0.002678,0.000431,0.040782
5971000,0.0324,0.013523,0.002678,0.000431,0.037021
5972000,0.0324,0.013523,0.002678,0.000431,0.040430
5973000,0.0324,0.013523,0.002678,0.000431,0.041605
5974000,0.0324,0.013523,0.002678,0.000431,0.037256
5975000,0.0324,0.013523,0.002678,0.000431,0.038549
5976000,0.0324,0.013523,0.002678,0.000431,0.040547
5977000,0.0324,0.013523,0.002678,0.000431,0.040430
5978000,0.0324,0.013523,0.002678,0.000431,0.038314
5979000,0.0324,0.013523,0.002678,0.000431,0.039607
5980000,0.0324,0.013523,0.002678,0.000431,0.041723
5981000,0.0324,0.013523,0.002678,0.000431,0.039607
5982000,0.0324,0.013523,0.002678,0.000431,0.037491
5983000,0.0324,0.013523,0.002678,0.000431,0.037374
5984000,0.0324,0.013523,0.002678,0.000431,0.039842
5985000,0.0324,0.013523,0.002678,0.000431,0.042193
5986000,0.0324,0.013523,0.002678,0.000431,0.036199
5987000,0.0324,0.013523,0.002678,0.000431,0.038784
5988000,0.0324,0.013523,0.002678,0.000431,0.041017
5989000,0.0324,0.013523,0.002678,0.000431,0.042075
5990000,0.0324,0.013523,0.002678,0.000431,0.038667
5991000,0.0324,0.013523,0.002678,0.000431,0.039254
5992000,0.0324,0.013523,0.002678,0.000431,0.039607
5993000,0.0324,0.013523,0.002678,0.000431,0.037609
5994000,0.0324,0.013523,0.002678,0.000431,0.036669
5995000,0.0324,0.013523,0.002678,0.000431,0.037609
5996000,0.0324,0.013523,0.002678,0.000431,0.042780
5997000,0.0324,0.013523,0.002678,0.000431,0.039254
5998000,0.0324,0.013523,0.002678,0.000431,0.036316
5999000,0.0324,0.013523,0.002678,0.000431,0.038432
