Cycle,Area(mm^2),PeakDynamic(W),SubthresholdLeakage(W),GateLeakage(W),RunTimeDynamic(W)
8000000,0.0324,0.013523,0.002678,0.000431,0.021860
8001000,0.0324,0.013523,0.002678,0.000431,0.021038
8002000,0.0324,0.013523,0.002678,0.000431,0.019745
8003000,0.0324,0.013523,0.002678,0.000431,0.019627
8004000,0.0324,0.013523,0.002678,0.000431,0.021508
8005000,0.0324,0.013523,0.002678,0.000431,0.020450
8006000,0.0324,0.013523,0.002678,0.000431,0.021155
8007000,0.0324,0.013523,0.002678,0.000431,0.021743
8008000,0.0324,0.013523,0.002678,0.000431,0.022213
8009000,0.0324,0.013523,0.002678,0.000431,0.020450
8010000,0.0324,0.013523,0.002678,0.000431,0.019627
8011000,0.0324,0.013523,0.002678,0.000431,0.022095
8012000,0.0324,0.013523,0.002678,0.000431,0.019980
8013000,0.0324,0.013523,0.002678,0.000431,0.020920
8014000,0.0324,0.013523,0.002678,0.000431,0.021978
8015000,0.0324,0.013523,0.002678,0.000431,0.020215
8016000,0.0324,0.013523,0.002678,0.000431,0.020685
8017000,0.0324,0.013523,0.002678,0.000431,0.020920
8018000,0.0324,0.013523,0.002678,0.000431,0.020802
8019000,0.0324,0.013523,0.002678,0.000431,0.020567
8020000,0.0324,0.013523,0.002678,0.000431,0.021038
8021000,0.0324,0.013523,0.002678,0.000431,0.019862
8022000,0.0324,0.013523,0.002678,0.000431,0.021860
8023000,0.0324,0.013523,0.002678,0.000431,0.022565
8024000,0.0324,0.013523,0.002678,0.000431,0.021390
8025000,0.0324,0.013523,0.002678,0.000431,0.019745
8026000,0.0324,0.013523,0.002678,0.000431,0.020802
8027000,0.0324,0.013523,0.002678,0.000431,0.020920
8028000,0.0324,0.013523,0.002678,0.000431,0.021038
8029000,0.0324,0.013523,0.002678,0.000431,0.020802
8030000,0.0324,0.013523,0.002678,0.000431,0.021743
8031000,0.0324,0.013523,0.002678,0.000431,0.020215
8032000,0.0324,0.013523,0.002678,0.000431,0.020450
8033000,0.0324,0.013523,0.002678,0.000431,0.021508
8034000,0.0324,0.013523,0.002678,0.000431,0.021625
8035000,0.0324,0.013523,0.002678,0.000431,0.021155
8036000,0.0324,0.013523,0.002678,0.000431,0.020097
8037000,0.0324,0.013523,0.002678,0.000431,0.020215
8038000,0.0324,0.013523,0.002678,0.000431,0.021743
8039000,0.0324,0.013523,0.002678,0.000431,0.021390
8040000,0.0324,0.013523,0.002678,0.000431,0.022918
8041000,0.0324,0.013523,0.002678,0.000431,0.018805
8042000,0.0324,0.013523,0.002678,0.000431,0.021155
8043000,0.0324,0.013523,0.002678,0.000431,0.021273
8044000,0.0324,0.013523,0.002678,0.000431,0.021273
8045000,0.0324,0.013523,0.002678,0.000431,0.020567
8046000,0.0324,0.013523,0.002678,0.000431,0.021860
8047000,0.0324,0.013523,0.002678,0.000431,0.020450
8048000,0.0324,0.013523,0.002678,0.000431,0.020450
8049000,0.0324,0.013523,0.002678,0.000431,0.020567
8050000,0.0324,0.013523,0.002678,0.000431,0.018569
8051000,0.0324,0.013523,0.002678,0.000431,0.020920
8052000,0.0324,0.013523,0.002678,0.000431,0.019980
8053000,0.0324,0.013523,0.002678,0.000431,0.021390
8054000,0.0324,0.013523,0.002678,0.000431,0.020802
8055000,0.0324,0.013523,0.002678,0.000431,0.020920
8056000,0.0324,0.013523,0.002678,0.000431,0.019510
8057000,0.0324,0.013523,0.002678,0.000431,0.021155
8058000,0.0324,0.013523,0.002678,0.000431,0.020920
8059000,0.0324,0.013523,0.002678,0.000431,0.022448
8060000,0.0324,0.013523,0.002678,0.000431,0.020450
8061000,0.0324,0.013523,0.002678,0.000431,0.020685
8062000,0.0324,0.013523,0.002678,0.000431,0.022683
8063000,0.0324,0.013523,0.002678,0.000431,0.019157
8064000,0.0324,0.013523,0.002678,0.000431,0.022448
8065000,0.0324,0.013523,0.002678,0.000431,0.020332
8066000,0.0324,0.013523,0.002678,0.000431,0.022565
8067000,0.0324,0.013523,0.002678,0.000431,0.020567
8068000,0.0324,0.013523,0.002678,0.000431,0.021038
8069000,0.0324,0.013523,0.002678,0.000431,0.020685
8070000,0.0324,0.013523,0.002678,0.000431,0.021743
8071000,0.0324,0.013523,0.002678,0.000431,0.019745
8072000,0.0324,0.013523,0.002678,0.000431,0.020567
8073000,0.0324,0.013523,0.002678,0.000431,0.020685
8074000,0.0324,0.013523,0.002678,0.000431,0.019862
8075000,0.0324,0.013523,0.002678,0.000431,0.021273
8076000,0.0324,0.013523,0.002678,0.000431,0.020920
8077000,0.0324,0.013523,0.002678,0.000431,0.019862
8078000,0.0324,0.013523,0.002678,0.000431,0.021390
8079000,0.0324,0.013523,0.002678,0.000431,0.019745
8080000,0.0324,0.013523,0.002678,0.000431,0.020332
8081000,0.0324,0.013523,0.002678,0.000431,0.021273
8082000,0.0324,0.013523,0.002678,0.000431,0.019862
8083000,0.0324,0.013523,0.002678,0.000431,0.021978
8084000,0.0324,0.013523,0.002678,0.000431,0.021978
8085000,0.0324,0.013523,0.002678,0.000431,0.021038
8086000,0.0324,0.013523,0.002678,0.000431,0.019980
8087000,0.0324,0.013523,0.002678,0.000431,0.023623
8088000,0.0324,0.013523,0.002678,0.000431,0.019157
8089000,0.0324,0.013523,0.002678,0.000431,0.020450
8090000,0.0324,0.013523,0.002678,0.000431,0.022448
8091000,0.0324,0.013523,0.002678,0.000431,0.019980
8092000,0.0324,0.013523,0.002678,0.000431,0.022448
8093000,0.0324,0.013523,0.002678,0.000431,0.018334
8094000,0.0324,0.013523,0.002678,0.000431,0.022800
8095000,0.0324,0.013523,0.002678,0.000431,0.022095
8096000,0.0324,0.013523,0.002678,0.000431,0.019745
8097000,0.0324,0.013523,0.002678,0.000431,0.021155
8098000,0.0324,0.013523,0.002678,0.000431,0.020332
8099000,0.0324,0.013523,0.002678,0.000431,0.021625
8100000,0.0324,0.013523,0.002678,0.000431,0.020332
8101000,0.0324,0.013523,0.002678,0.000431,0.022213
8102000,0.0324,0.013523,0.002678,0.000431,0.019627
8103000,0.0324,0.013523,0.002678,0.000431,0.021390
8104000,0.0324,0.013523,0.002678,0.000431,0.020215
8105000,0.0324,0.013523,0.002678,0.000431,0.021508
8106000,0.0324,0.013523,0.002678,0.000431,0.018687
8107000,0.0324,0.013523,0.002678,0.000431,0.020802
8108000,0.0324,0.013523,0.002678,0.000431,0.019627
8109000,0.0324,0.013523,0.002678,0.000431,0.021978
8110000,0.0324,0.013523,0.002678,0.000431,0.021038
8111000,0.0324,0.013523,0.002678,0.000431,0.020215
8112000,0.0324,0.013523,0.002678,0.000431,0.019980
8113000,0.0324,0.013523,0.002678,0.000431,0.020450
8114000,0.0324,0.013523,0.002678,0.000431,0.021508
8115000,0.0324,0.013523,0.002678,0.000431,0.022800
8116000,0.0324,0.013523,0.002678,0.000431,0.020920
8117000,0.0324,0.013523,0.002678,0.000431,0.020920
8118000,0.0324,0.013523,0.002678,0.000431,0.018922
8119000,0.0324,0.013523,0.002678,0.000431,0.021273
8120000,0.0324,0.013523,0.002678,0.000431,0.020215
8121000,0.0324,0.013523,0.002678,0.000431,0.020567
8122000,0.0324,0.013523,0.002678,0.000431,0.019980
8123000,0.0324,0.013523,0.002678,0.000431,0.020920
8124000,0.0324,0.013523,0.002678,0.000431,0.020215
8125000,0.0324,0.013523,0.002678,0.000431,0.021508
8126000,0.0324,0.013523,0.002678,0.000431,0.022565
8127000,0.0324,0.013523,0.002678,0.000431,0.020685
8128000,0.0324,0.013523,0.002678,0.000431,0.018687
8129000,0.0324,0.013523,0.002678,0.000431,0.020450
8130000,0.0324,0.013523,0.002678,0.000431,0.021625
8131000,0.0324,0.013523,0.002678,0.000431,0.020097
8132000,0.0324,0.013523,0.002678,0.000431,0.021155
8133000,0.0324,0.013523,0.002678,0.000431,0.019862
8134000,0.0324,0.013523,0.002678,0.000431,0.020920
8135000,0.0324,0.013523,0.002678,0.000431,0.020802
8136000,0.0324,0.013523,0.002678,0.000431,0.021390
8137000,0.0324,0.013523,0.002678,0.000431,0.019392
8138000,0.0324,0.013523,0.002678,0.000431,0.020920
8139000,0.0324,0.013523,0.002678,0.000431,0.019627
8140000,0.0324,0.013523,0.002678,0.000431,0.020567
8141000,0.0324,0.013523,0.002678,0.000431,0.021743
8142000,0.0324,0.013523,0.002678,0.000431,0.020920
8143000,0.0324,0.013523,0.002678,0.000431,0.020450
8144000,0.0324,0.013523,0.002678,0.000431,0.020215
8145000,0.0324,0.013523,0.002678,0.000431,0.020097
8146000,0.0324,0.013523,0.002678,0.000431,0.021508
8147000,0.0324,0.013523,0.002678,0.000431,0.020920
8148000,0.0324,0.013523,0.002678,0.000431,0.020802
8149000,0.0324,0.013523,0.002678,0.000431,0.019627
8150000,0.0324,0.013523,0.002678,0.000431,0.020332
8151000,0.0324,0.013523,0.002678,0.000431,0.020215
8152000,0.0324,0.013523,0.002678,0.000431,0.020215
8153000,0.0324,0.013523,0.002678,0.000431,0.021978
8154000,0.0324,0.013523,0.002678,0.000431,0.019980
8155000,0.0324,0.013523,0.002678,0.000431,0.020685
8156000,0.0324,0.013523,0.002678,0.000431,0.022683
8157000,0.0324,0.013523,0.002678,0.000431,0.020097
8158000,0.0324,0.013523,0.002678,0.000431,0.020215
8159000,0.0324,0.013523,0.002678,0.000431,0.020920
8160000,0.0324,0.013523,0.002678,0.000431,0.020215
8161000,0.0324,0.013523,0.002678,0.000431,0.021743
8162000,0.0324,0.013523,0.002678,0.000431,0.021038
8163000,0.0324,0.013523,0.002678,0.000431,0.019980
8164000,0.0324,0.013523,0.002678,0.000431,0.021390
8165000,0.0324,0.013523,0.002678,0.000431,0.022683
8166000,0.0324,0.013523,0.002678,0.000431,0.022448
8167000,0.0324,0.013523,0.002678,0.000431,0.021155
8168000,0.0324,0.013523,0.002678,0.000431,0.019510
8169000,0.0324,0.013523,0.002678,0.000431,0.020685
8170000,0.0324,0.013523,0.002678,0.000431,0.019510
8171000,0.0324,0.013523,0.002678,0.000431,0.020920
8172000,0.0324,0.013523,0.002678,0.000431,0.021625
8173000,0.0324,0.013523,0.002678,0.000431,0.020920
8174000,0.0324,0.013523,0.002678,0.000431,0.019275
8175000,0.0324,0.013523,0.002678,0.000431,0.019040
8176000,0.0324,0.013523,0.002678,0.000431,0.020685
8177000,0.0324,0.013523,0.002678,0.000431,0.021860
8178000,0.0324,0.013523,0.002678,0.000431,0.021155
8179000,0.0324,0.013523,0.002678,0.000431,0.020097
8180000,0.0324,0.013523,0.002678,0.000431,0.021273
8181000,0.0324,0.013523,0.002678,0.000431,0.020920
8182000,0.0324,0.013523,0.002678,0.000431,0.020920
8183000,0.0324,0.013523,0.002678,0.000431,0.022683
8184000,0.0324,0.013523,0.002678,0.000431,0.018805
8185000,0.0324,0.013523,0.002678,0.000431,0.020097
8186000,0.0324,0.013523,0.002678,0.000431,0.021390
8187000,0.0324,0.013523,0.002678,0.000431,0.019627
8188000,0.0324,0.013523,0.002678,0.000431,0.018687
8189000,0.0324,0.013523,0.002678,0.000431,0.019745
8190000,0.0324,0.013523,0.002678,0.000431,0.019745
8191000,0.0324,0.013523,0.002678,0.000431,0.020802
8192000,0.0324,0.013523,0.002678,0.000431,0.022095
8193000,0.0324,0.013523,0.002678,0.000431,0.020215
8194000,0.0324,0.013523,0.002678,0.000431,0.019275
8195000,0.0324,0.013523,0.002678,0.000431,0.020097
8196000,0.0324,0.013523,0.002678,0.000431,0.020567
8197000,0.0324,0.013523,0.002678,0.000431,0.019392
8198000,0.0324,0.013523,0.002678,0.000431,0.021508
8199000,0.0324,0.013523,0.002678,0.000431,0.019392
8200000,0.0324,0.013523,0.002678,0.000431,0.021038
8201000,0.0324,0.013523,0.002678,0.000431,0.019510
8202000,0.0324,0.013523,0.002678,0.000431,0.020685
8203000,0.0324,0.013523,0.002678,0.000431,0.021508
8204000,0.0324,0.013523,0.002678,0.000431,0.019745
8205000,0.0324,0.013523,0.002678,0.000431,0.019627
8206000,0.0324,0.013523,0.002678,0.000431,0.020685
8207000,0.0324,0.013523,0.002678,0.000431,0.020920
8208000,0.0324,0.013523,0.002678,0.000431,0.020685
8209000,0.0324,0.013523,0.002678,0.000431,0.019157
8210000,0.0324,0.013523,0.002678,0.000431,0.018922
8211000,0.0324,0.013523,0.002678,0.000431,0.020920
8212000,0.0324,0.013523,0.002678,0.000431,0.021743
8213000,0.0324,0.013523,0.002678,0.000431,0.022565
8214000,0.0324,0.013523,0.002678,0.000431,0.019040
8215000,0.0324,0.013523,0.002678,0.000431,0.020097
8216000,0.0324,0.013523,0.002678,0.000431,0.020685
8217000,0.0324,0.013523,0.002678,0.000431,0.021273
8218000,0.0324,0.013523,0.002678,0.000431,0.019862
8219000,0.0324,0.013523,0.002678,0.000431,0.021155
8220000,0.0324,0.013523,0.002678,0.000431,0.019627
8221000,0.0324,0.013523,0.002678,0.000431,0.021390
8222000,0.0324,0.013523,0.002678,0.000431,0.020802
8223000,0.0324,0.013523,0.002678,0.000431,0.020685
8224000,0.0324,0.013523,0.002678,0.000431,0.020685
8225000,0.0324,0.013523,0.002678,0.000431,0.019040
8226000,0.0324,0.013523,0.002678,0.000431,0.021155
8227000,0.0324,0.013523,0.002678,0.000431,0.020332
8228000,0.0324,0.013523,0.002678,0.000431,0.021273
8229000,0.0324,0.013523,0.002678,0.000431,0.019862
8230000,0.0324,0.013523,0.002678,0.000431,0.019980
8231000,0.0324,0.013523,0.002678,0.000431,0.019862
8232000,0.0324,0.013523,0.002678,0.000431,0.019980
8233000,0.0324,0.013523,0.002678,0.000431,0.021743
8234000,0.0324,0.013523,0.002678,0.000431,0.019392
8235000,0.0324,0.013523,0.002678,0.000431,0.021038
8236000,0.0324,0.013523,0.002678,0.000431,0.020450
8237000,0.0324,0.013523,0.002678,0.000431,0.018217
8238000,0.0324,0.013523,0.002678,0.000431,0.021155
8239000,0.0324,0.013523,0.002678,0.000431,0.021978
8240000,0.0324,0.013523,0.002678,0.000431,0.019275
8241000,0.0324,0.013523,0.002678,0.000431,0.019157
8242000,0.0324,0.013523,0.002678,0.000431,0.020450
8243000,0.0324,0.013523,0.002678,0.000431,0.021390
8244000,0.0324,0.013523,0.002678,0.000431,0.019040
8245000,0.0324,0.013523,0.002678,0.000431,0.020920
8246000,0.0324,0.013523,0.002678,0.000431,0.020097
8247000,0.0324,0.013523,0.002678,0.000431,0.019862
8248000,0.0324,0.013523,0.002678,0.000431,0.019040
8249000,0.0324,0.013523,0.002678,0.000431,0.021508
8250000,0.0324,0.013523,0.002678,0.000431,0.019510
8251000,0.0324,0.013523,0.002678,0.000431,0.019862
8252000,0.0324,0.013523,0.002678,0.000431,0.021743
8253000,0.0324,0.013523,0.002678,0.000431,0.020567
8254000,0.0324,0.013523,0.002678,0.000431,0.021155
8255000,0.0324,0.013523,0.002678,0.000431,0.021273
8256000,0.0324,0.013523,0.002678,0.000431,0.020920
8257000,0.0324,0.013523,0.002678,0.000431,0.019510
8258000,0.0324,0.013523,0.002678,0.000431,0.021743
8259000,0.0324,0.013523,0.002678,0.000431,0.020215
8260000,0.0324,0.013523,0.002678,0.000431,0.020802
8261000,0.0324,0.013523,0.002678,0.000431,0.020332
8262000,0.0324,0.013523,0.002678,0.000431,0.021390
8263000,0.0324,0.013523,0.002678,0.000431,0.019980
8264000,0.0324,0.013523,0.002678,0.000431,0.020685
8265000,0.0324,0.013523,0.002678,0.000431,0.020567
8266000,0.0324,0.013523,0.002678,0.000431,0.021273
8267000,0.0324,0.013523,0.002678,0.000431,0.019392
8268000,0.0324,0.013523,0.002678,0.000431,0.021155
8269000,0.0324,0.013523,0.002678,0.000431,0.019745
8270000,0.0324,0.013523,0.002678,0.000431,0.019862
8271000,0.0324,0.013523,0.002678,0.000431,0.020097
8272000,0.0324,0.013523,0.002678,0.000431,0.020567
8273000,0.0324,0.013523,0.002678,0.000431,0.021978
8274000,0.0324,0.013523,0.002678,0.000431,0.020920
8275000,0.0324,0.013523,0.002678,0.000431,0.019627
8276000,0.0324,0.013523,0.002678,0.000431,0.020685
8277000,0.0324,0.013523,0.002678,0.000431,0.020802
8278000,0.0324,0.013523,0.002678,0.000431,0.020450
8279000,0.0324,0.013523,0.002678,0.000431,0.019510
8280000,0.0324,0.013523,0.002678,0.000431,0.019980
8281000,0.0324,0.013523,0.002678,0.000431,0.019627
8282000,0.0324,0.013523,0.002678,0.000431,0.019862
8283000,0.0324,0.013523,0.002678,0.000431,0.021508
8284000,0.0324,0.013523,0.002678,0.000431,0.019040
8285000,0.0324,0.013523,0.002678,0.000431,0.019745
8286000,0.0324,0.013523,0.002678,0.000431,0.018334
8287000,0.0324,0.013523,0.002678,0.000431,0.019745
8288000,0.0324,0.013523,0.002678,0.000431,0.019510
8289000,0.0324,0.013523,0.002678,0.000431,0.020215
8290000,0.0324,0.013523,0.002678,0.000431,0.019157
8291000,0.0324,0.013523,0.002678,0.000431,0.020215
8292000,0.0324,0.013523,0.002678,0.000431,0.019627
8293000,0.0324,0.013523,0.002678,0.000431,0.020567
8294000,0.0324,0.013523,0.002678,0.000431,0.019980
8295000,0.0324,0.013523,0.002678,0.000431,0.018922
8296000,0.0324,0.013523,0.002678,0.000431,0.018334
8297000,0.0324,0.013523,0.002678,0.000431,0.019862
8298000,0.0324,0.013523,0.002678,0.000431,0.018452
8299000,0.0324,0.013523,0.002678,0.000431,0.020567
8300000,0.0324,0.013523,0.002678,0.000431,0.018569
8301000,0.0324,0.013523,0.002678,0.000431,0.019862
8302000,0.0324,0.013523,0.002678,0.000431,0.018687
8303000,0.0324,0.013523,0.002678,0.000431,0.021743
8304000,0.0324,0.013523,0.002678,0.000431,0.019392
8305000,0.0324,0.013523,0.002678,0.000431,0.019862
8306000,0.0324,0.013523,0.002678,0.000431,0.020450
8307000,0.0324,0.013523,0.002678,0.000431,0.018334
8308000,0.0324,0.013523,0.002678,0.000431,0.020685
8309000,0.0324,0.013523,0.002678,0.000431,0.019627
8310000,0.0324,0.013523,0.002678,0.000431,0.019745
8311000,0.0324,0.013523,0.002678,0.000431,0.020097
8312000,0.0324,0.013523,0.002678,0.000431,0.018687
8313000,0.0324,0.013523,0.002678,0.000431,0.020215
8314000,0.0324,0.013523,0.002678,0.000431,0.021038
8315000,0.0324,0.013523,0.002678,0.000431,0.019510
8316000,0.0324,0.013523,0.002678,0.000431,0.021155
8317000,0.0324,0.013523,0.002678,0.000431,0.019157
8318000,0.0324,0.013523,0.002678,0.000431,0.020097
8319000,0.0324,0.013523,0.002678,0.000431,0.018922
8320000,0.0324,0.013523,0.002678,0.000431,0.021625
8321000,0.0324,0.013523,0.002678,0.000431,0.020097
8322000,0.0324,0.013523,0.002678,0.000431,0.019862
8323000,0.0324,0.013523,0.002678,0.000431,0.019980
8324000,0.0324,0.013523,0.002678,0.000431,0.019980
8325000,0.0324,0.013523,0.002678,0.000431,0.020567
8326000,0.0324,0.013523,0.002678,0.000431,0.018687
8327000,0.0324,0.013523,0.002678,0.000431,0.020685
8328000,0.0324,0.013523,0.002678,0.000431,0.019392
8329000,0.0324,0.013523,0.002678,0.000431,0.020567
8330000,0.0324,0.013523,0.002678,0.000431,0.021390
8331000,0.0324,0.013523,0.002678,0.000431,0.017747
8332000,0.0324,0.013523,0.002678,0.000431,0.019157
8333000,0.0324,0.013523,0.002678,0.000431,0.019392
8334000,0.0324,0.013523,0.002678,0.000431,0.020332
8335000,0.0324,0.013523,0.002678,0.000431,0.019275
8336000,0.0324,0.013523,0.002678,0.000431,0.019862
8337000,0.0324,0.013523,0.002678,0.000431,0.020215
8338000,0.0324,0.013523,0.002678,0.000431,0.019275
8339000,0.0324,0.013523,0.002678,0.000431,0.021508
8340000,0.0324,0.013523,0.002678,0.000431,0.018687
8341000,0.0324,0.013523,0.002678,0.000431,0.019745
8342000,0.0324,0.013523,0.002678,0.000431,0.017864
8343000,0.0324,0.013523,0.002678,0.000431,0.020567
8344000,0.0324,0.013523,0.002678,0.000431,0.021038
8345000,0.0324,0.013523,0.002678,0.000431,0.019510
8346000,0.0324,0.013523,0.002678,0.000431,0.019275
8347000,0.0324,0.013523,0.002678,0.000431,0.020450
8348000,0.0324,0.013523,0.002678,0.000431,0.020450
8349000,0.0324,0.013523,0.002678,0.000431,0.020215
8350000,0.0324,0.013523,0.002678,0.000431,0.021743
8351000,0.0324,0.013523,0.002678,0.000431,0.019862
8352000,0.0324,0.013523,0.002678,0.000431,0.018687
8353000,0.0324,0.013523,0.002678,0.000431,0.019275
8354000,0.0324,0.013523,0.002678,0.000431,0.021155
8355000,0.0324,0.013523,0.002678,0.000431,0.018099
8356000,0.0324,0.013523,0.002678,0.000431,0.018569
8357000,0.0324,0.013523,0.002678,0.000431,0.018099
8358000,0.0324,0.013523,0.002678,0.000431,0.018569
8359000,0.0324,0.013523,0.002678,0.000431,0.018805
8360000,0.0324,0.013523,0.002678,0.000431,0.021155
8361000,0.0324,0.013523,0.002678,0.000431,0.017747
8362000,0.0324,0.013523,0.002678,0.000431,0.018805
8363000,0.0324,0.013523,0.002678,0.000431,0.019275
8364000,0.0324,0.013523,0.002678,0.000431,0.020567
8365000,0.0324,0.013523,0.002678,0.000431,0.020215
8366000,0.0324,0.013523,0.002678,0.000431,0.019392
8367000,0.0324,0.013523,0.002678,0.000431,0.019627
8368000,0.0324,0.013523,0.002678,0.000431,0.018569
8369000,0.0324,0.013523,0.002678,0.000431,0.019392
8370000,0.0324,0.013523,0.002678,0.000431,0.020685
8371000,0.0324,0.013523,0.002678,0.000431,0.017394
8372000,0.0324,0.013523,0.002678,0.000431,0.019392
8373000,0.0324,0.013523,0.002678,0.000431,0.017864
8374000,0.0324,0.013523,0.002678,0.000431,0.021038
8375000,0.0324,0.013523,0.002678,0.000431,0.018334
8376000,0.0324,0.013523,0.002678,0.000431,0.019157
8377000,0.0324,0.013523,0.002678,0.000431,0.019157
8378000,0.0324,0.013523,0.002678,0.000431,0.020215
8379000,0.0324,0.013523,0.002678,0.000431,0.018334
8380000,0.0324,0.013523,0.002678,0.000431,0.019862
8381000,0.0324,0.013523,0.002678,0.000431,0.018452
8382000,0.0324,0.013523,0.002678,0.000431,0.020215
8383000,0.0324,0.013523,0.002678,0.000431,0.018099
8384000,0.0324,0.013523,0.002678,0.000431,0.019040
8385000,0.0324,0.013523,0.002678,0.000431,0.018922
8386000,0.0324,0.013523,0.002678,0.000431,0.021038
8387000,0.0324,0.013523,0.002678,0.000431,0.017629
8388000,0.0324,0.013523,0.002678,0.000431,0.018334
8389000,0.0324,0.013523,0.002678,0.000431,0.019275
8390000,0.0324,0.013523,0.002678,0.000431,0.019392
8391000,0.0324,0.013523,0.002678,0.000431,0.017864
8392000,0.0324,0.013523,0.002678,0.000431,0.017512
8393000,0.0324,0.013523,0.002678,0.000431,0.019627
8394000,0.0324,0.013523,0.002678,0.000431,0.019040
8395000,0.0324,0.013523,0.002678,0.000431,0.020215
8396000,0.0324,0.013523,0.002678,0.000431,0.020332
8397000,0.0324,0.013523,0.002678,0.000431,0.019392
8398000,0.0324,0.013523,0.002678,0.000431,0.017982
8399000,0.0324,0.013523,0.002678,0.000431,0.020215
8400000,0.0324,0.013523,0.002678,0.000431,0.020215
8401000,0.0324,0.013523,0.002678,0.000431,0.019040
8402000,0.0324,0.013523,0.002678,0.000431,0.018805
8403000,0.0324,0.013523,0.002678,0.000431,0.018922
8404000,0.0324,0.013523,0.002678,0.000431,0.018687
8405000,0.0324,0.013523,0.002678,0.000431,0.018569
8406000,0.0324,0.013523,0.002678,0.000431,0.019392
8407000,0.0324,0.013523,0.002678,0.000431,0.019040
8408000,0.0324,0.013523,0.002678,0.000431,0.017042
8409000,0.0324,0.013523,0.002678,0.000431,0.018687
8410000,0.0324,0.013523,0.002678,0.000431,0.019862
8411000,0.0324,0.013523,0.002678,0.000431,0.021390
8412000,0.0324,0.013523,0.002678,0.000431,0.017277
8413000,0.0324,0.013523,0.002678,0.000431,0.018687
8414000,0.0324,0.013523,0.002678,0.000431,0.019040
8415000,0.0324,0.013523,0.002678,0.000431,0.021273
8416000,0.0324,0.013523,0.002678,0.000431,0.019040
8417000,0.0324,0.013523,0.002678,0.000431,0.019040
8418000,0.0324,0.013523,0.002678,0.000431,0.017747
8419000,0.0324,0.013523,0.002678,0.000431,0.018334
8420000,0.0324,0.013523,0.002678,0.000431,0.019392
8421000,0.0324,0.013523,0.002678,0.000431,0.020332
8422000,0.0324,0.013523,0.002678,0.000431,0.018569
8423000,0.0324,0.013523,0.002678,0.000431,0.020567
8424000,0.0324,0.013523,0.002678,0.000431,0.017747
8425000,0.0324,0.013523,0.002678,0.000431,0.019157
8426000,0.0324,0.013523,0.002678,0.000431,0.020685
8427000,0.0324,0.013523,0.002678,0.000431,0.018805
8428000,0.0324,0.013523,0.002678,0.000431,0.019980
8429000,0.0324,0.013523,0.002678,0.000431,0.017864
8430000,0.0324,0.013523,0.002678,0.000431,0.019862
8431000,0.0324,0.013523,0.002678,0.000431,0.019510
8432000,0.0324,0.013523,0.002678,0.000431,0.019275
8433000,0.0324,0.013523,0.002678,0.000431,0.019862
8434000,0.0324,0.013523,0.002678,0.000431,0.018217
8435000,0.0324,0.013523,0.002678,0.000431,0.019040
8436000,0.0324,0.013523,0.002678,0.000431,0.020802
8437000,0.0324,0.013523,0.002678,0.000431,0.018099
8438000,0.0324,0.013523,0.002678,0.000431,0.018099
8439000,0.0324,0.013523,0.002678,0.000431,0.018687
8440000,0.0324,0.013523,0.002678,0.000431,0.018452
8441000,0.0324,0.013523,0.002678,0.000431,0.018687
8442000,0.0324,0.013523,0.002678,0.000431,0.019040
8443000,0.0324,0.013523,0.002678,0.000431,0.018805
8444000,0.0324,0.013523,0.002678,0.000431,0.019275
8445000,0.0324,0.013523,0.002678,0.000431,0.018569
8446000,0.0324,0.013523,0.002678,0.000431,0.019862
8447000,0.0324,0.013523,0.002678,0.000431,0.019040
8448000,0.0324,0.013523,0.002678,0.000431,0.019392
8449000,0.0324,0.013523,0.002678,0.000431,0.019040
8450000,0.0324,0.013523,0.002678,0.000431,0.019627
8451000,0.0324,0.013523,0.002678,0.000431,0.020450
8452000,0.0324,0.013523,0.002678,0.000431,0.018334
8453000,0.0324,0.013523,0.002678,0.000431,0.018687
8454000,0.0324,0.013523,0.002678,0.000431,0.019275
8455000,0.0324,0.013523,0.002678,0.000431,0.018805
8456000,0.0324,0.013523,0.002678,0.000431,0.020567
8457000,0.0324,0.013523,0.002678,0.000431,0.018687
8458000,0.0324,0.013523,0.002678,0.000431,0.019862
8459000,0.0324,0.013523,0.002678,0.000431,0.017747
8460000,0.0324,0.013523,0.002678,0.000431,0.017629
8461000,0.0324,0.013523,0.002678,0.000431,0.018805
8462000,0.0324,0.013523,0.002678,0.000431,0.019157
8463000,0.0324,0.013523,0.002678,0.000431,0.018452
8464000,0.0324,0.013523,0.002678,0.000431,0.015279
8465000,0.0324,0.013523,0.002678,0.000431,0.019392
8466000,0.0324,0.013523,0.002678,0.000431,0.019745
8467000,0.0324,0.013523,0.002678,0.000431,0.019745
8468000,0.0324,0.013523,0.002678,0.000431,0.017512
8469000,0.0324,0.013523,0.002678,0.000431,0.018452
8470000,0.0324,0.013523,0.002678,0.000431,0.018922
8471000,0.0324,0.013523,0.002678,0.000431,0.018805
8472000,0.0324,0.013523,0.002678,0.000431,0.018217
8473000,0.0324,0.013523,0.002678,0.000431,0.018922
8474000,0.0324,0.013523,0.002678,0.000431,0.017512
8475000,0.0324,0.013523,0.002678,0.000431,0.017747
8476000,0.0324,0.013523,0.002678,0.000431,0.018687
8477000,0.0324,0.013523,0.002678,0.000431,0.017629
8478000,0.0324,0.013523,0.002678,0.000431,0.018805
8479000,0.0324,0.013523,0.002678,0.000431,0.017042
8480000,0.0324,0.013523,0.002678,0.000431,0.018569
8481000,0.0324,0.013523,0.002678,0.000431,0.017864
8482000,0.0324,0.013523,0.002678,0.000431,0.018569
8483000,0.0324,0.013523,0.002678,0.000431,0.018217
8484000,0.0324,0.013523,0.002678,0.000431,0.015984
8485000,0.0324,0.013523,0.002678,0.000431,0.017277
8486000,0.0324,0.013523,0.002678,0.000431,0.017864
8487000,0.0324,0.013523,0.002678,0.000431,0.018805
8488000,0.0324,0.013523,0.002678,0.000431,0.016689
8489000,0.0324,0.013523,0.002678,0.000431,0.017277
8490000,0.0324,0.013523,0.002678,0.000431,0.016924
8491000,0.0324,0.013523,0.002678,0.000431,0.017864
8492000,0.0324,0.013523,0.002678,0.000431,0.018099
8493000,0.0324,0.013523,0.002678,0.000431,0.017042
8494000,0.0324,0.013523,0.002678,0.000431,0.016219
8495000,0.0324,0.013523,0.002678,0.000431,0.018805
8496000,0.0324,0.013523,0.002678,0.000431,0.019392
8497000,0.0324,0.013523,0.002678,0.000431,0.017277
8498000,0.0324,0.013523,0.002678,0.000431,0.017747
8499000,0.0324,0.013523,0.002678,0.000431,0.018687
8500000,0.0324,0.013523,0.002678,0.000431,0.017394
8501000,0.0324,0.013523,0.002678,0.000431,0.017629
8502000,0.0324,0.013523,0.002678,0.000431,0.017394
8503000,0.0324,0.013523,0.002678,0.000431,0.018452
8504000,0.0324,0.013523,0.002678,0.000431,0.016571
8505000,0.0324,0.013523,0.002678,0.000431,0.017864
8506000,0.0324,0.013523,0.002678,0.000431,0.019392
8507000,0.0324,0.013523,0.002678,0.000431,0.017747
8508000,0.0324,0.013523,0.002678,0.000431,0.017864
8509000,0.0324,0.013523,0.002678,0.000431,0.018922
8510000,0.0324,0.013523,0.002678,0.000431,0.018217
8511000,0.0324,0.013523,0.002678,0.000431,0.017042
8512000,0.0324,0.013523,0.002678,0.000431,0.019040
8513000,0.0324,0.013523,0.002678,0.000431,0.017982
8514000,0.0324,0.013523,0.002678,0.000431,0.018334
8515000,0.0324,0.013523,0.002678,0.000431,0.017159
8516000,0.0324,0.013523,0.002678,0.000431,0.018805
8517000,0.0324,0.013523,0.002678,0.000431,0.017629
8518000,0.0324,0.013523,0.002678,0.000431,0.017277
8519000,0.0324,0.013523,0.002678,0.000431,0.017864
8520000,0.0324,0.013523,0.002678,0.000431,0.016807
8521000,0.0324,0.013523,0.002678,0.000431,0.015279
8522000,0.0324,0.013523,0.002678,0.000431,0.016454
8523000,0.0324,0.013523,0.002678,0.000431,0.019510
8524000,0.0324,0.013523,0.002678,0.000431,0.016101
8525000,0.0324,0.013523,0.002678,0.000431,0.016336
8526000,0.0324,0.013523,0.002678,0.000431,0.019275
8527000,0.0324,0.013523,0.002678,0.000431,0.015161
8528000,0.0324,0.013523,0.002678,0.000431,0.017629
8529000,0.0324,0.013523,0.002678,0.000431,0.017982
8530000,0.0324,0.013523,0.002678,0.000431,0.017277
8531000,0.0324,0.013523,0.002678,0.000431,0.017277
8532000,0.0324,0.013523,0.002678,0.000431,0.015396
8533000,0.0324,0.013523,0.002678,0.000431,0.017159
8534000,0.0324,0.013523,0.002678,0.000431,0.017042
8535000,0.0324,0.013523,0.002678,0.000431,0.016571
8536000,0.0324,0.013523,0.002678,0.000431,0.016336
8537000,0.0324,0.013523,0.002678,0.000431,0.018334
8538000,0.0324,0.013523,0.002678,0.000431,0.017159
8539000,0.0324,0.013523,0.002678,0.000431,0.018452
8540000,0.0324,0.013523,0.002678,0.000431,0.016924
8541000,0.0324,0.013523,0.002678,0.000431,0.017394
8542000,0.0324,0.013523,0.002678,0.000431,0.015749
8543000,0.0324,0.013523,0.002678,0.000431,0.017982
8544000,0.0324,0.013523,0.002678,0.000431,0.017042
8545000,0.0324,0.013523,0.002678,0.000431,0.017629
8546000,0.0324,0.013523,0.002678,0.000431,0.015396
8547000,0.0324,0.013523,0.002678,0.000431,0.017864
8548000,0.0324,0.013523,0.002678,0.000431,0.018452
8549000,0.0324,0.013523,0.002678,0.000431,0.016571
8550000,0.0324,0.013523,0.002678,0.000431,0.016454
8551000,0.0324,0.013523,0.002678,0.000431,0.017042
8552000,0.0324,0.013523,0.002678,0.000431,0.018099
8553000,0.0324,0.013523,0.002678,0.000431,0.017277
8554000,0.0324,0.013523,0.002678,0.000431,0.015984
8555000,0.0324,0.013523,0.002678,0.000431,0.016571
8556000,0.0324,0.013523,0.002678,0.000431,0.015984
8557000,0.0324,0.013523,0.002678,0.000431,0.017277
8558000,0.0324,0.013523,0.002678,0.000431,0.017042
8559000,0.0324,0.013523,0.002678,0.000431,0.017277
8560000,0.0324,0.013523,0.002678,0.000431,0.017629
8561000,0.0324,0.013523,0.002678,0.000431,0.016807
8562000,0.0324,0.013523,0.002678,0.000431,0.017864
8563000,0.0324,0.013523,0.002678,0.000431,0.017629
8564000,0.0324,0.013523,0.002678,0.000431,0.017629
8565000,0.0324,0.013523,0.002678,0.000431,0.016101
8566000,0.0324,0.013523,0.002678,0.000431,0.017159
8567000,0.0324,0.013523,0.002678,0.000431,0.016924
8568000,0.0324,0.013523,0.002678,0.000431,0.017512
8569000,0.0324,0.013523,0.002678,0.000431,0.017394
8570000,0.0324,0.013523,0.002678,0.000431,0.017159
8571000,0.0324,0.013523,0.002678,0.000431,0.016454
8572000,0.0324,0.013523,0.002678,0.000431,0.016689
8573000,0.0324,0.013523,0.002678,0.000431,0.018334
8574000,0.0324,0.013523,0.002678,0.000431,0.017747
8575000,0.0324,0.013523,0.002678,0.000431,0.017042
8576000,0.0324,0.013523,0.002678,0.000431,0.016101
8577000,0.0324,0.013523,0.002678,0.000431,0.017629
8578000,0.0324,0.013523,0.002678,0.000431,0.018217
8579000,0.0324,0.013523,0.002678,0.000431,0.016924
8580000,0.0324,0.013523,0.002678,0.000431,0.017982
8581000,0.0324,0.013523,0.002678,0.000431,0.018452
8582000,0.0324,0.013523,0.002678,0.000431,0.016219
8583000,0.0324,0.013523,0.002678,0.000431,0.016924
8584000,0.0324,0.013523,0.002678,0.000431,0.016571
8585000,0.0324,0.013523,0.002678,0.000431,0.017747
8586000,0.0324,0.013523,0.002678,0.000431,0.016454
8587000,0.0324,0.013523,0.002678,0.000431,0.017042
8588000,0.0324,0.013523,0.002678,0.000431,0.016689
8589000,0.0324,0.013523,0.002678,0.000431,0.018687
8590000,0.0324,0.013523,0.002678,0.000431,0.017042
8591000,0.0324,0.013523,0.002678,0.000431,0.016454
8592000,0.0324,0.013523,0.002678,0.000431,0.016219
8593000,0.0324,0.013523,0.002678,0.000431,0.017042
8594000,0.0324,0.013523,0.002678,0.000431,0.017864
8595000,0.0324,0.013523,0.002678,0.000431,0.015866
8596000,0.0324,0.013523,0.002678,0.000431,0.016219
8597000,0.0324,0.013523,0.002678,0.000431,0.017159
8598000,0.0324,0.013523,0.002678,0.000431,0.016924
8599000,0.0324,0.013523,0.002678,0.000431,0.019040
8600000,0.0324,0.013523,0.002678,0.000431,0.015984
8601000,0.0324,0.013523,0.002678,0.000431,0.017042
8602000,0.0324,0.013523,0.002678,0.000431,0.017277
8603000,0.0324,0.013523,0.002678,0.000431,0.015749
8604000,0.0324,0.013523,0.002678,0.000431,0.018569
8605000,0.0324,0.013523,0.002678,0.000431,0.016571
8606000,0.0324,0.013523,0.002678,0.000431,0.016924
8607000,0.0324,0.013523,0.002678,0.000431,0.015279
8608000,0.0324,0.013523,0.002678,0.000431,0.018099
8609000,0.0324,0.013523,0.002678,0.000431,0.016571
8610000,0.0324,0.013523,0.002678,0.000431,0.018099
8611000,0.0324,0.013523,0.002678,0.000431,0.017042
8612000,0.0324,0.013523,0.002678,0.000431,0.016336
8613000,0.0324,0.013523,0.002678,0.000431,0.015984
8614000,0.0324,0.013523,0.002678,0.000431,0.017512
8615000,0.0324,0.013523,0.002678,0.000431,0.017159
8616000,0.0324,0.013523,0.002678,0.000431,0.016807
8617000,0.0324,0.013523,0.002678,0.000431,0.016454
8618000,0.0324,0.013523,0.002678,0.000431,0.017394
8619000,0.0324,0.013523,0.002678,0.000431,0.017159
8620000,0.0324,0.013523,0.002678,0.000431,0.018805
8621000,0.0324,0.013523,0.002678,0.000431,0.017512
8622000,0.0324,0.013523,0.002678,0.000431,0.017982
8623000,0.0324,0.013523,0.002678,0.000431,0.017512
8624000,0.0324,0.013523,0.002678,0.000431,0.017747
8625000,0.0324,0.013523,0.002678,0.000431,0.016689
8626000,0.0324,0.013523,0.002678,0.000431,0.017394
8627000,0.0324,0.013523,0.002678,0.000431,0.017512
8628000,0.0324,0.013523,0.002678,0.000431,0.016807
8629000,0.0324,0.013523,0.002678,0.000431,0.018217
8630000,0.0324,0.013523,0.002678,0.000431,0.016924
8631000,0.0324,0.013523,0.002678,0.000431,0.016689
8632000,0.0324,0.013523,0.002678,0.000431,0.018099
8633000,0.0324,0.013523,0.002678,0.000431,0.018452
8634000,0.0324,0.013523,0.002678,0.000431,0.017864
8635000,0.0324,0.013523,0.002678,0.000431,0.017512
8636000,0.0324,0.013523,0.002678,0.000431,0.016571
8637000,0.0324,0.013523,0.002678,0.000431,0.018334
8638000,0.0324,0.013523,0.002678,0.000431,0.017512
8639000,0.0324,0.013523,0.002678,0.000431,0.015514
8640000,0.0324,0.013523,0.002678,0.000431,0.018099
8641000,0.0324,0.013523,0.002678,0.000431,0.016454
8642000,0.0324,0.013523,0.002678,0.000431,0.016807
8643000,0.0324,0.013523,0.002678,0.000431,0.017982
8644000,0.0324,0.013523,0.002678,0.000431,0.017864
8645000,0.0324,0.013523,0.002678,0.000431,0.018805
8646000,0.0324,0.013523,0.002678,0.000431,0.016689
8647000,0.0324,0.013523,0.002678,0.000431,0.017042
8648000,0.0324,0.013523,0.002678,0.000431,0.017394
8649000,0.0324,0.013523,0.002678,0.000431,0.017747
8650000,0.0324,0.013523,0.002678,0.000431,0.017982
8651000,0.0324,0.013523,0.002678,0.000431,0.018217
8652000,0.0324,0.013523,0.002678,0.000431,0.016101
8653000,0.0324,0.013523,0.002678,0.000431,0.016336
8654000,0.0324,0.013523,0.002678,0.000431,0.017747
8655000,0.0324,0.013523,0.002678,0.000431,0.017394
8656000,0.0324,0.013523,0.002678,0.000431,0.019040
8657000,0.0324,0.013523,0.002678,0.000431,0.017629
8658000,0.0324,0.013523,0.002678,0.000431,0.015866
8659000,0.0324,0.013523,0.002678,0.000431,0.016571
8660000,0.0324,0.013523,0.002678,0.000431,0.017864
8661000,0.0324,0.013523,0.002678,0.000431,0.017982
8662000,0.0324,0.013523,0.002678,0.000431,0.016101
8663000,0.0324,0.013523,0.002678,0.000431,0.017747
8664000,0.0324,0.013523,0.002678,0.000431,0.015984
8665000,0.0324,0.013523,0.002678,0.000431,0.018099
8666000,0.0324,0.013523,0.002678,0.000431,0.017629
8667000,0.0324,0.013523,0.002678,0.000431,0.017629
8668000,0.0324,0.013523,0.002678,0.000431,0.014926
8669000,0.0324,0.013523,0.002678,0.000431,0.017277
8670000,0.0324,0.013523,0.002678,0.000431,0.018687
8671000,0.0324,0.013523,0.002678,0.000431,0.016689
8672000,0.0324,0.013523,0.002678,0.000431,0.016219
8673000,0.0324,0.013523,0.002678,0.000431,0.018334
8674000,0.0324,0.013523,0.002678,0.000431,0.017277
8675000,0.0324,0.013523,0.002678,0.000431,0.018099
8676000,0.0324,0.013523,0.002678,0.000431,0.015984
8677000,0.0324,0.013523,0.002678,0.000431,0.018334
8678000,0.0324,0.013523,0.002678,0.000431,0.016924
8679000,0.0324,0.013523,0.002678,0.000431,0.016571
8680000,0.0324,0.013523,0.002678,0.000431,0.017159
8681000,0.0324,0.013523,0.002678,0.000431,0.016571
8682000,0.0324,0.013523,0.002678,0.000431,0.017629
8683000,0.0324,0.013523,0.002678,0.000431,0.017747
8684000,0.0324,0.013523,0.002678,0.000431,0.016336
8685000,0.0324,0.013523,0.002678,0.000431,0.016924
8686000,0.0324,0.013523,0.002678,0.000431,0.017747
8687000,0.0324,0.013523,0.002678,0.000431,0.018334
8688000,0.0324,0.013523,0.002678,0.000431,0.016571
8689000,0.0324,0.013523,0.002678,0.000431,0.017394
8690000,0.0324,0.013523,0.002678,0.000431,0.017277
8691000,0.0324,0.013523,0.002678,0.000431,0.018687
8692000,0.0324,0.013523,0.002678,0.000431,0.016571
8693000,0.0324,0.013523,0.002678,0.000431,0.016807
8694000,0.0324,0.013523,0.002678,0.000431,0.017394
8695000,0.0324,0.013523,0.002678,0.000431,0.018687
8696000,0.0324,0.013523,0.002678,0.000431,0.018334
8697000,0.0324,0.013523,0.002678,0.000431,0.016454
8698000,0.0324,0.013523,0.002678,0.000431,0.017512
8699000,0.0324,0.013523,0.002678,0.000431,0.017512
8700000,0.0324,0.013523,0.002678,0.000431,0.017982
8701000,0.0324,0.013523,0.002678,0.000431,0.017982
8702000,0.0324,0.013523,0.002678,0.000431,0.017042
8703000,0.0324,0.013523,0.002678,0.000431,0.018099
8704000,0.0324,0.013523,0.002678,0.000431,0.015984
8705000,0.0324,0.013523,0.002678,0.000431,0.016924
8706000,0.0324,0.013523,0.002678,0.000431,0.017042
8707000,0.0324,0.013523,0.002678,0.000431,0.017864
8708000,0.0324,0.013523,0.002678,0.000431,0.017747
8709000,0.0324,0.013523,0.002678,0.000431,0.017512
8710000,0.0324,0.013523,0.002678,0.000431,0.016219
8711000,0.0324,0.013523,0.002678,0.000431,0.018569
8712000,0.0324,0.013523,0.002678,0.000431,0.017629
8713000,0.0324,0.013523,0.002678,0.000431,0.016454
8714000,0.0324,0.013523,0.002678,0.000431,0.017629
8715000,0.0324,0.013523,0.002678,0.000431,0.016219
8716000,0.0324,0.013523,0.002678,0.000431,0.018569
8717000,0.0324,0.013523,0.002678,0.000431,0.017042
8718000,0.0324,0.013523,0.002678,0.000431,0.018569
8719000,0.0324,0.013523,0.002678,0.000431,0.016571
8720000,0.0324,0.013523,0.002678,0.000431,0.017277
8721000,0.0324,0.013523,0.002678,0.000431,0.017629
8722000,0.0324,0.013523,0.002678,0.000431,0.017512
8723000,0.0324,0.013523,0.002678,0.000431,0.018452
8724000,0.0324,0.013523,0.002678,0.000431,0.017394
8725000,0.0324,0.013523,0.002678,0.000431,0.016807
8726000,0.0324,0.013523,0.002678,0.000431,0.019040
8727000,0.0324,0.013523,0.002678,0.000431,0.015749
8728000,0.0324,0.013523,0.002678,0.000431,0.017747
8729000,0.0324,0.013523,0.002678,0.000431,0.017159
8730000,0.0324,0.013523,0.002678,0.000431,0.016336
8731000,0.0324,0.013523,0.002678,0.000431,0.016807
8732000,0.0324,0.013523,0.002678,0.000431,0.016807
8733000,0.0324,0.013523,0.002678,0.000431,0.016689
8734000,0.0324,0.013523,0.002678,0.000431,0.016807
8735000,0.0324,0.013523,0.002678,0.000431,0.018334
8736000,0.0324,0.013523,0.002678,0.000431,0.017159
8737000,0.0324,0.013523,0.002678,0.000431,0.018099
8738000,0.0324,0.013523,0.002678,0.000431,0.018452
8739000,0.0324,0.013523,0.002678,0.000431,0.015984
8740000,0.0324,0.013523,0.002678,0.000431,0.017982
8741000,0.0324,0.013523,0.002678,0.000431,0.018099
8742000,0.0324,0.013523,0.002678,0.000431,0.017394
8743000,0.0324,0.013523,0.002678,0.000431,0.016571
8744000,0.0324,0.013523,0.002678,0.000431,0.016924
8745000,0.0324,0.013523,0.002678,0.000431,0.016454
8746000,0.0324,0.013523,0.002678,0.000431,0.018687
8747000,0.0324,0.013523,0.002678,0.000431,0.016454
8748000,0.0324,0.013523,0.002678,0.000431,0.017982
8749000,0.0324,0.013523,0.002678,0.000431,0.016219
8750000,0.0324,0.013523,0.002678,0.000431,0.018099
8751000,0.0324,0.013523,0.002678,0.000431,0.017982
8752000,0.0324,0.013523,0.002678,0.000431,0.017982
8753000,0.0324,0.013523,0.002678,0.000431,0.018099
8754000,0.0324,0.013523,0.002678,0.000431,0.016571
8755000,0.0324,0.013523,0.002678,0.000431,0.016924
8756000,0.0324,0.013523,0.002678,0.000431,0.017512
8757000,0.0324,0.013523,0.002678,0.000431,0.018805
8758000,0.0324,0.013523,0.002678,0.000431,0.016924
8759000,0.0324,0.013523,0.002678,0.000431,0.016924
8760000,0.0324,0.013523,0.002678,0.000431,0.017982
8761000,0.0324,0.013523,0.002678,0.000431,0.016219
8762000,0.0324,0.013523,0.002678,0.000431,0.019040
8763000,0.0324,0.013523,0.002678,0.000431,0.018217
8764000,0.0324,0.013523,0.002678,0.000431,0.018334
8765000,0.0324,0.013523,0.002678,0.000431,0.016101
8766000,0.0324,0.013523,0.002678,0.000431,0.018099
8767000,0.0324,0.013523,0.002678,0.000431,0.017394
8768000,0.0324,0.013523,0.002678,0.000431,0.017512
8769000,0.0324,0.013523,0.002678,0.000431,0.017512
8770000,0.0324,0.013523,0.002678,0.000431,0.016336
8771000,0.0324,0.013523,0.002678,0.000431,0.017277
8772000,0.0324,0.013523,0.002678,0.000431,0.017864
8773000,0.0324,0.013523,0.002678,0.000431,0.018452
8774000,0.0324,0.013523,0.002678,0.000431,0.017747
8775000,0.0324,0.013523,0.002678,0.000431,0.015749
8776000,0.0324,0.013523,0.002678,0.000431,0.019040
8777000,0.0324,0.013523,0.002678,0.000431,0.017159
8778000,0.0324,0.013523,0.002678,0.000431,0.018099
8779000,0.0324,0.013523,0.002678,0.000431,0.018452
8780000,0.0324,0.013523,0.002678,0.000431,0.016219
8781000,0.0324,0.013523,0.002678,0.000431,0.016454
8782000,0.0324,0.013523,0.002678,0.000431,0.019275
8783000,0.0324,0.013523,0.002678,0.000431,0.016336
8784000,0.0324,0.013523,0.002678,0.000431,0.017864
8785000,0.0324,0.013523,0.002678,0.000431,0.016924
8786000,0.0324,0.013523,0.002678,0.000431,0.016454
8787000,0.0324,0.013523,0.002678,0.000431,0.018099
8788000,0.0324,0.013523,0.002678,0.000431,0.016336
8789000,0.0324,0.013523,0.002678,0.000431,0.017747
8790000,0.0324,0.013523,0.002678,0.000431,0.017982
8791000,0.0324,0.013523,0.002678,0.000431,0.016807
8792000,0.0324,0.013523,0.002678,0.000431,0.018334
8793000,0.0324,0.013523,0.002678,0.000431,0.018452
8794000,0.0324,0.013523,0.002678,0.000431,0.017042
8795000,0.0324,0.013523,0.002678,0.000431,0.018099
8796000,0.0324,0.013523,0.002678,0.000431,0.016924
8797000,0.0324,0.013523,0.002678,0.000431,0.017629
8798000,0.0324,0.013523,0.002678,0.000431,0.018099
8799000,0.0324,0.013523,0.002678,0.000431,0.016689
8800000,0.0324,0.013523,0.002678,0.000431,0.017747
8801000,0.0324,0.013523,0.002678,0.000431,0.016807
8802000,0.0324,0.013523,0.002678,0.000431,0.019275
8803000,0.0324,0.013523,0.002678,0.000431,0.017159
8804000,0.0324,0.013523,0.002678,0.000431,0.016807
8805000,0.0324,0.013523,0.002678,0.000431,0.017982
8806000,0.0324,0.013523,0.002678,0.000431,0.016689
8807000,0.0324,0.013523,0.002678,0.000431,0.016924
8808000,0.0324,0.013523,0.002678,0.000431,0.018687
8809000,0.0324,0.013523,0.002678,0.000431,0.016571
8810000,0.0324,0.013523,0.002678,0.000431,0.015631
8811000,0.0324,0.013523,0.002678,0.000431,0.017159
8812000,0.0324,0.013523,0.002678,0.000431,0.018217
8813000,0.0324,0.013523,0.002678,0.000431,0.018099
8814000,0.0324,0.013523,0.002678,0.000431,0.016454
8815000,0.0324,0.013523,0.002678,0.000431,0.016924
8816000,0.0324,0.013523,0.002678,0.000431,0.018569
8817000,0.0324,0.013523,0.002678,0.000431,0.017042
8818000,0.0324,0.013523,0.002678,0.000431,0.019275
8819000,0.0324,0.013523,0.002678,0.000431,0.017277
8820000,0.0324,0.013523,0.002678,0.000431,0.017277
8821000,0.0324,0.013523,0.002678,0.000431,0.017042
8822000,0.0324,0.013523,0.002678,0.000431,0.018569
8823000,0.0324,0.013523,0.002678,0.000431,0.017277
8824000,0.0324,0.013523,0.002678,0.000431,0.016807
8825000,0.0324,0.013523,0.002678,0.000431,0.018334
8826000,0.0324,0.013523,0.002678,0.000431,0.017512
8827000,0.0324,0.013523,0.002678,0.000431,0.015514
8828000,0.0324,0.013523,0.002678,0.000431,0.017747
8829000,0.0324,0.013523,0.002678,0.000431,0.015749
8830000,0.0324,0.013523,0.002678,0.000431,0.017159
8831000,0.0324,0.013523,0.002678,0.000431,0.017159
8832000,0.0324,0.013523,0.002678,0.000431,0.016219
8833000,0.0324,0.013523,0.002678,0.000431,0.016336
8834000,0.0324,0.013523,0.002678,0.000431,0.018805
8835000,0.0324,0.013523,0.002678,0.000431,0.017512
8836000,0.0324,0.013523,0.002678,0.000431,0.015514
8837000,0.0324,0.013523,0.002678,0.000431,0.015514
8838000,0.0324,0.013523,0.002678,0.000431,0.017864
8839000,0.0324,0.013523,0.002678,0.000431,0.018217
8840000,0.0324,0.013523,0.002678,0.000431,0.017277
8841000,0.0324,0.013523,0.002678,0.000431,0.016924
8842000,0.0324,0.013523,0.002678,0.000431,0.015749
8843000,0.0324,0.013523,0.002678,0.000431,0.016454
8844000,0.0324,0.013523,0.002678,0.000431,0.018452
8845000,0.0324,0.013523,0.002678,0.000431,0.016101
8846000,0.0324,0.013523,0.002678,0.000431,0.017394
8847000,0.0324,0.013523,0.002678,0.000431,0.018452
8848000,0.0324,0.013523,0.002678,0.000431,0.016689
8849000,0.0324,0.013523,0.002678,0.000431,0.015866
8850000,0.0324,0.013523,0.002678,0.000431,0.016924
8851000,0.0324,0.013523,0.002678,0.000431,0.017042
8852000,0.0324,0.013523,0.002678,0.000431,0.015984
8853000,0.0324,0.013523,0.002678,0.000431,0.016924
8854000,0.0324,0.013523,0.002678,0.000431,0.018099
8855000,0.0324,0.013523,0.002678,0.000431,0.016101
8856000,0.0324,0.013523,0.002678,0.000431,0.017042
8857000,0.0324,0.013523,0.002678,0.000431,0.015396
8858000,0.0324,0.013523,0.002678,0.000431,0.016571
8859000,0.0324,0.013523,0.002678,0.000431,0.017982
8860000,0.0324,0.013523,0.002678,0.000431,0.018217
8861000,0.0324,0.013523,0.002678,0.000431,0.017277
8862000,0.0324,0.013523,0.002678,0.000431,0.016454
8863000,0.0324,0.013523,0.002678,0.000431,0.017394
8864000,0.0324,0.013523,0.002678,0.000431,0.018569
8865000,0.0324,0.013523,0.002678,0.000431,0.016689
8866000,0.0324,0.013523,0.002678,0.000431,0.017159
8867000,0.0324,0.013523,0.002678,0.000431,0.016689
8868000,0.0324,0.013523,0.002678,0.000431,0.016924
8869000,0.0324,0.013523,0.002678,0.000431,0.017747
8870000,0.0324,0.013523,0.002678,0.000431,0.015866
8871000,0.0324,0.013523,0.002678,0.000431,0.016689
8872000,0.0324,0.013523,0.002678,0.000431,0.015984
8873000,0.0324,0.013523,0.002678,0.000431,0.016571
8874000,0.0324,0.013523,0.002678,0.000431,0.015984
8875000,0.0324,0.013523,0.002678,0.000431,0.016336
8876000,0.0324,0.013523,0.002678,0.000431,0.017159
8877000,0.0324,0.013523,0.002678,0.000431,0.017277
8878000,0.0324,0.013523,0.002678,0.000431,0.016454
8879000,0.0324,0.013523,0.002678,0.000431,0.016807
8880000,0.0324,0.013523,0.002678,0.000431,0.017277
8881000,0.0324,0.013523,0.002678,0.000431,0.017159
8882000,0.0324,0.013523,0.002678,0.000431,0.016924
8883000,0.0324,0.013523,0.002678,0.000431,0.015631
8884000,0.0324,0.013523,0.002678,0.000431,0.019157
8885000,0.0324,0.013523,0.002678,0.000431,0.016689
8886000,0.0324,0.013523,0.002678,0.000431,0.015866
8887000,0.0324,0.013523,0.002678,0.000431,0.018099
8888000,0.0324,0.013523,0.002678,0.000431,0.016336
8889000,0.0324,0.013523,0.002678,0.000431,0.016101
8890000,0.0324,0.013523,0.002678,0.000431,0.017394
8891000,0.0324,0.013523,0.002678,0.000431,0.016454
8892000,0.0324,0.013523,0.002678,0.000431,0.015161
8893000,0.0324,0.013523,0.002678,0.000431,0.017747
8894000,0.0324,0.013523,0.002678,0.000431,0.016807
8895000,0.0324,0.013523,0.002678,0.000431,0.018452
8896000,0.0324,0.013523,0.002678,0.000431,0.016924
8897000,0.0324,0.013523,0.002678,0.000431,0.015749
8898000,0.0324,0.013523,0.002678,0.000431,0.016101
8899000,0.0324,0.013523,0.002678,0.000431,0.016807
8900000,0.0324,0.013523,0.002678,0.000431,0.017864
8901000,0.0324,0.013523,0.002678,0.000431,0.015984
8902000,0.0324,0.013523,0.002678,0.000431,0.016454
8903000,0.0324,0.013523,0.002678,0.000431,0.017159
8904000,0.0324,0.013523,0.002678,0.000431,0.017042
8905000,0.0324,0.013523,0.002678,0.000431,0.016807
8906000,0.0324,0.013523,0.002678,0.000431,0.017629
8907000,0.0324,0.013523,0.002678,0.000431,0.016689
8908000,0.0324,0.013523,0.002678,0.000431,0.017042
8909000,0.0324,0.013523,0.002678,0.000431,0.015044
8910000,0.0324,0.013523,0.002678,0.000431,0.017982
8911000,0.0324,0.013523,0.002678,0.000431,0.018099
8912000,0.0324,0.013523,0.002678,0.000431,0.016924
8913000,0.0324,0.013523,0.002678,0.000431,0.016454
8914000,0.0324,0.013523,0.002678,0.000431,0.017394
8915000,0.0324,0.013523,0.002678,0.000431,0.017394
8916000,0.0324,0.013523,0.002678,0.000431,0.016571
8917000,0.0324,0.013523,0.002678,0.000431,0.017747
8918000,0.0324,0.013523,0.002678,0.000431,0.016219
8919000,0.0324,0.013523,0.002678,0.000431,0.016454
8920000,0.0324,0.013523,0.002678,0.000431,0.017864
8921000,0.0324,0.013523,0.002678,0.000431,0.017982
8922000,0.0324,0.013523,0.002678,0.000431,0.016336
8923000,0.0324,0.013523,0.002678,0.000431,0.017512
8924000,0.0324,0.013523,0.002678,0.000431,0.017042
8925000,0.0324,0.013523,0.002678,0.000431,0.016454
8926000,0.0324,0.013523,0.002678,0.000431,0.017277
8927000,0.0324,0.013523,0.002678,0.000431,0.016924
8928000,0.0324,0.013523,0.002678,0.000431,0.015749
8929000,0.0324,0.013523,0.002678,0.000431,0.016924
8930000,0.0324,0.013523,0.002678,0.000431,0.017982
8931000,0.0324,0.013523,0.002678,0.000431,0.018099
8932000,0.0324,0.013523,0.002678,0.000431,0.016807
8933000,0.0324,0.013523,0.002678,0.000431,0.016807
8934000,0.0324,0.013523,0.002678,0.000431,0.015396
8935000,0.0324,0.013523,0.002678,0.000431,0.017512
8936000,0.0324,0.013523,0.002678,0.000431,0.017864
8937000,0.0324,0.013523,0.002678,0.000431,0.015631
8938000,0.0324,0.013523,0.002678,0.000431,0.016807
8939000,0.0324,0.013523,0.002678,0.000431,0.015749
8940000,0.0324,0.013523,0.002678,0.000431,0.017042
8941000,0.0324,0.013523,0.002678,0.000431,0.017042
8942000,0.0324,0.013523,0.002678,0.000431,0.016689
8943000,0.0324,0.013523,0.002678,0.000431,0.017042
8944000,0.0324,0.013523,0.002678,0.000431,0.015984
8945000,0.0324,0.013523,0.002678,0.000431,0.017042
8946000,0.0324,0.013523,0.002678,0.000431,0.017277
8947000,0.0324,0.013523,0.002678,0.000431,0.017747
8948000,0.0324,0.013523,0.002678,0.000431,0.016219
8949000,0.0324,0.013523,0.002678,0.000431,0.017747
8950000,0.0324,0.013523,0.002678,0.000431,0.016219
8951000,0.0324,0.013523,0.002678,0.000431,0.017512
8952000,0.0324,0.013523,0.002678,0.000431,0.015631
8953000,0.0324,0.013523,0.002678,0.000431,0.018217
8954000,0.0324,0.013523,0.002678,0.000431,0.016336
8955000,0.0324,0.013523,0.002678,0.000431,0.016454
8956000,0.0324,0.013523,0.002678,0.000431,0.017747
8957000,0.0324,0.013523,0.002678,0.000431,0.015866
8958000,0.0324,0.013523,0.002678,0.000431,0.017277
8959000,0.0324,0.013523,0.002678,0.000431,0.017042
8960000,0.0324,0.013523,0.002678,0.000431,0.016336
8961000,0.0324,0.013523,0.002678,0.000431,0.016807
8962000,0.0324,0.013523,0.002678,0.000431,0.017512
8963000,0.0324,0.013523,0.002678,0.000431,0.016689
8964000,0.0324,0.013523,0.002678,0.000431,0.015866
8965000,0.0324,0.013523,0.002678,0.000431,0.016454
8966000,0.0324,0.013523,0.002678,0.000431,0.017864
8967000,0.0324,0.013523,0.002678,0.000431,0.016571
8968000,0.0324,0.013523,0.002678,0.000431,0.016336
8969000,0.0324,0.013523,0.002678,0.000431,0.018805
8970000,0.0324,0.013523,0.002678,0.000431,0.017159
8971000,0.0324,0.013523,0.002678,0.000431,0.017629
8972000,0.0324,0.013523,0.002678,0.000431,0.017512
8973000,0.0324,0.013523,0.002678,0.000431,0.016924
8974000,0.0324,0.013523,0.002678,0.000431,0.016336
8975000,0.0324,0.013523,0.002678,0.000431,0.016807
8976000,0.0324,0.013523,0.002678,0.000431,0.015631
8977000,0.0324,0.013523,0.002678,0.000431,0.017277
8978000,0.0324,0.013523,0.002678,0.000431,0.016924
8979000,0.0324,0.013523,0.002678,0.000431,0.018922
8980000,0.0324,0.013523,0.002678,0.000431,0.015514
8981000,0.0324,0.013523,0.002678,0.000431,0.016689
8982000,0.0324,0.013523,0.002678,0.000431,0.018452
8983000,0.0324,0.013523,0.002678,0.000431,0.016807
8984000,0.0324,0.013523,0.002678,0.000431,0.015866
8985000,0.0324,0.013523,0.002678,0.000431,0.017394
8986000,0.0324,0.013523,0.002678,0.000431,0.016101
8987000,0.0324,0.013523,0.002678,0.000431,0.015396
8988000,0.0324,0.013523,0.002678,0.000431,0.016454
8989000,0.0324,0.013523,0.002678,0.000431,0.017629
8990000,0.0324,0.013523,0.002678,0.000431,0.015749
8991000,0.0324,0.013523,0.002678,0.000431,0.016454
8992000,0.0324,0.013523,0.002678,0.000431,0.017747
8993000,0.0324,0.013523,0.002678,0.000431,0.017042
8994000,0.0324,0.013523,0.002678,0.000431,0.015866
8995000,0.0324,0.013523,0.002678,0.000431,0.017394
8996000,0.0324,0.013523,0.002678,0.000431,0.016571
8997000,0.0324,0.013523,0.002678,0.000431,0.017277
8998000,0.0324,0.013523,0.002678,0.000431,0.017394
8999000,0.0324,0.013523,0.002678,0.000431,0.015279
