Cycle,Area(mm^2),PeakDynamic(W),SubthresholdLeakage(W),GateLeakage(W),RunTimeDynamic(W)
16000000,0.0324,0.013523,0.002678,0.000431,0.005289
16001000,0.0324,0.013523,0.002678,0.000431,0.004113
16002000,0.0324,0.013523,0.002678,0.000431,0.004701
16003000,0.0324,0.013523,0.002678,0.000431,0.004466
16004000,0.0324,0.013523,0.002678,0.000431,0.004819
16005000,0.0324,0.013523,0.002678,0.000431,0.004466
16006000,0.0324,0.013523,0.002678,0.000431,0.004701
16007000,0.0324,0.013523,0.002678,0.000431,0.004349
16008000,0.0324,0.013523,0.002678,0.000431,0.004701
16009000,0.0324,0.013523,0.002678,0.000431,0.004584
16010000,0.0324,0.013523,0.002678,0.000431,0.005171
16011000,0.0324,0.013523,0.002678,0.000431,0.003996
16012000,0.0324,0.013523,0.002678,0.000431,0.004936
16013000,0.0324,0.013523,0.002678,0.000431,0.004231
16014000,0.0324,0.013523,0.002678,0.000431,0.004936
16015000,0.0324,0.013523,0.002678,0.000431,0.004466
16016000,0.0324,0.013523,0.002678,0.000431,0.004113
16017000,0.0324,0.013523,0.002678,0.000431,0.004113
16018000,0.0324,0.013523,0.002678,0.000431,0.004231
16019000,0.0324,0.013523,0.002678,0.000431,0.004819
16020000,0.0324,0.013523,0.002678,0.000431,0.004584
16021000,0.0324,0.013523,0.002678,0.000431,0.003996
16022000,0.0324,0.013523,0.002678,0.000431,0.005171
16023000,0.0324,0.013523,0.002678,0.000431,0.003878
16024000,0.0324,0.013523,0.002678,0.000431,0.004701
16025000,0.0324,0.013523,0.002678,0.000431,0.005054
16026000,0.0324,0.013523,0.002678,0.000431,0.004584
16027000,0.0324,0.013523,0.002678,0.000431,0.004701
16028000,0.0324,0.013523,0.002678,0.000431,0.004819
16029000,0.0324,0.013523,0.002678,0.000431,0.004584
16030000,0.0324,0.013523,0.002678,0.000431,0.004936
16031000,0.0324,0.013523,0.002678,0.000431,0.004701
16032000,0.0324,0.013523,0.002678,0.000431,0.004349
16033000,0.0324,0.013523,0.002678,0.000431,0.004936
16034000,0.0324,0.013523,0.002678,0.000431,0.004113
16035000,0.0324,0.013523,0.002678,0.000431,0.004936
16036000,0.0324,0.013523,0.002678,0.000431,0.004819
16037000,0.0324,0.013523,0.002678,0.000431,0.003761
16038000,0.0324,0.013523,0.002678,0.000431,0.004701
16039000,0.0324,0.013523,0.002678,0.000431,0.004936
16040000,0.0324,0.013523,0.002678,0.000431,0.004701
16041000,0.0324,0.013523,0.002678,0.000431,0.004466
16042000,0.0324,0.013523,0.002678,0.000431,0.004113
16043000,0.0324,0.013523,0.002678,0.000431,0.005171
16044000,0.0324,0.013523,0.002678,0.000431,0.004466
16045000,0.0324,0.013523,0.002678,0.000431,0.005406
16046000,0.0324,0.013523,0.002678,0.000431,0.004936
16047000,0.0324,0.013523,0.002678,0.000431,0.004584
16048000,0.0324,0.013523,0.002678,0.000431,0.004701
16049000,0.0324,0.013523,0.002678,0.000431,0.004819
16050000,0.0324,0.013523,0.002678,0.000431,0.005054
16051000,0.0324,0.013523,0.002678,0.000431,0.003761
16052000,0.0324,0.013523,0.002678,0.000431,0.004584
16053000,0.0324,0.013523,0.002678,0.000431,0.004466
16054000,0.0324,0.013523,0.002678,0.000431,0.004349
16055000,0.0324,0.013523,0.002678,0.000431,0.004113
16056000,0.0324,0.013523,0.002678,0.000431,0.005171
16057000,0.0324,0.013523,0.002678,0.000431,0.003996
16058000,0.0324,0.013523,0.002678,0.000431,0.004231
16059000,0.0324,0.013523,0.002678,0.000431,0.004584
16060000,0.0324,0.013523,0.002678,0.000431,0.005289
16061000,0.0324,0.013523,0.002678,0.000431,0.004936
16062000,0.0324,0.013523,0.002678,0.000431,0.003996
16063000,0.0324,0.013523,0.002678,0.000431,0.004819
16064000,0.0324,0.013523,0.002678,0.000431,0.004819
16065000,0.0324,0.013523,0.002678,0.000431,0.004584
16066000,0.0324,0.013523,0.002678,0.000431,0.005289
16067000,0.0324,0.013523,0.002678,0.000431,0.004584
16068000,0.0324,0.013523,0.002678,0.000431,0.005054
16069000,0.0324,0.013523,0.002678,0.000431,0.004701
16070000,0.0324,0.013523,0.002678,0.000431,0.005171
16071000,0.0324,0.013523,0.002678,0.000431,0.004819
16072000,0.0324,0.013523,0.002678,0.000431,0.005289
16073000,0.0324,0.013523,0.002678,0.000431,0.004819
16074000,0.0324,0.013523,0.002678,0.000431,0.004701
16075000,0.0324,0.013523,0.002678,0.000431,0.004584
16076000,0.0324,0.013523,0.002678,0.000431,0.004349
16077000,0.0324,0.013523,0.002678,0.000431,0.004584
16078000,0.0324,0.013523,0.002678,0.000431,0.005054
16079000,0.0324,0.013523,0.002678,0.000431,0.004584
16080000,0.0324,0.013523,0.002678,0.000431,0.004701
16081000,0.0324,0.013523,0.002678,0.000431,0.004701
16082000,0.0324,0.013523,0.002678,0.000431,0.004936
16083000,0.0324,0.013523,0.002678,0.000431,0.004466
16084000,0.0324,0.013523,0.002678,0.000431,0.004819
16085000,0.0324,0.013523,0.002678,0.000431,0.004584
16086000,0.0324,0.013523,0.002678,0.000431,0.004701
16087000,0.0324,0.013523,0.002678,0.000431,0.005289
16088000,0.0324,0.013523,0.002678,0.000431,0.004584
16089000,0.0324,0.013523,0.002678,0.000431,0.004113
16090000,0.0324,0.013523,0.002678,0.000431,0.005641
16091000,0.0324,0.013523,0.002678,0.000431,0.005289
16092000,0.0324,0.013523,0.002678,0.000431,0.004466
16093000,0.0324,0.013523,0.002678,0.000431,0.004819
16094000,0.0324,0.013523,0.002678,0.000431,0.005054
16095000,0.0324,0.013523,0.002678,0.000431,0.004819
16096000,0.0324,0.013523,0.002678,0.000431,0.005054
16097000,0.0324,0.013523,0.002678,0.000431,0.004701
16098000,0.0324,0.013523,0.002678,0.000431,0.004936
16099000,0.0324,0.013523,0.002678,0.000431,0.004819
16100000,0.0324,0.013523,0.002678,0.000431,0.004936
16101000,0.0324,0.013523,0.002678,0.000431,0.004936
16102000,0.0324,0.013523,0.002678,0.000431,0.004349
16103000,0.0324,0.013523,0.002678,0.000431,0.005054
16104000,0.0324,0.013523,0.002678,0.000431,0.004819
16105000,0.0324,0.013523,0.002678,0.000431,0.004936
16106000,0.0324,0.013523,0.002678,0.000431,0.005054
16107000,0.0324,0.013523,0.002678,0.000431,0.004466
16108000,0.0324,0.013523,0.002678,0.000431,0.004701
16109000,0.0324,0.013523,0.002678,0.000431,0.005289
16110000,0.0324,0.013523,0.002678,0.000431,0.004584
16111000,0.0324,0.013523,0.002678,0.000431,0.004231
16112000,0.0324,0.013523,0.002678,0.000431,0.005406
16113000,0.0324,0.013523,0.002678,0.000431,0.004701
16114000,0.0324,0.013523,0.002678,0.000431,0.004701
16115000,0.0324,0.013523,0.002678,0.000431,0.004584
16116000,0.0324,0.013523,0.002678,0.000431,0.004819
16117000,0.0324,0.013523,0.002678,0.000431,0.004466
16118000,0.0324,0.013523,0.002678,0.000431,0.004584
16119000,0.0324,0.013523,0.002678,0.000431,0.004819
16120000,0.0324,0.013523,0.002678,0.000431,0.004936
16121000,0.0324,0.013523,0.002678,0.000431,0.004466
16122000,0.0324,0.013523,0.002678,0.000431,0.003878
16123000,0.0324,0.013523,0.002678,0.000431,0.004701
16124000,0.0324,0.013523,0.002678,0.000431,0.005406
16125000,0.0324,0.013523,0.002678,0.000431,0.004231
16126000,0.0324,0.013523,0.002678,0.000431,0.004584
16127000,0.0324,0.013523,0.002678,0.000431,0.005171
16128000,0.0324,0.013523,0.002678,0.000431,0.003761
16129000,0.0324,0.013523,0.002678,0.000431,0.004701
16130000,0.0324,0.013523,0.002678,0.000431,0.004819
16131000,0.0324,0.013523,0.002678,0.000431,0.003996
16132000,0.0324,0.013523,0.002678,0.000431,0.004701
16133000,0.0324,0.013523,0.002678,0.000431,0.004936
16134000,0.0324,0.013523,0.002678,0.000431,0.004584
16135000,0.0324,0.013523,0.002678,0.000431,0.004701
16136000,0.0324,0.013523,0.002678,0.000431,0.004113
16137000,0.0324,0.013523,0.002678,0.000431,0.004466
16138000,0.0324,0.013523,0.002678,0.000431,0.004584
16139000,0.0324,0.013523,0.002678,0.000431,0.004936
16140000,0.0324,0.013523,0.002678,0.000431,0.005054
16141000,0.0324,0.013523,0.002678,0.000431,0.004584
16142000,0.0324,0.013523,0.002678,0.000431,0.005289
16143000,0.0324,0.013523,0.002678,0.000431,0.004584
16144000,0.0324,0.013523,0.002678,0.000431,0.005171
16145000,0.0324,0.013523,0.002678,0.000431,0.003761
16146000,0.0324,0.013523,0.002678,0.000431,0.004466
16147000,0.0324,0.013523,0.002678,0.000431,0.004701
16148000,0.0324,0.013523,0.002678,0.000431,0.004819
16149000,0.0324,0.013523,0.002678,0.000431,0.004584
16150000,0.0324,0.013523,0.002678,0.000431,0.004819
16151000,0.0324,0.013523,0.002678,0.000431,0.004701
16152000,0.0324,0.013523,0.002678,0.000431,0.004349
16153000,0.0324,0.013523,0.002678,0.000431,0.004584
16154000,0.0324,0.013523,0.002678,0.000431,0.005054
16155000,0.0324,0.013523,0.002678,0.000431,0.004819
16156000,0.0324,0.013523,0.002678,0.000431,0.005054
16157000,0.0324,0.013523,0.002678,0.000431,0.004936
16158000,0.0324,0.013523,0.002678,0.000431,0.004819
16159000,0.0324,0.013523,0.002678,0.000431,0.004466
16160000,0.0324,0.013523,0.002678,0.000431,0.004936
16161000,0.0324,0.013523,0.002678,0.000431,0.004819
16162000,0.0324,0.013523,0.002678,0.000431,0.004701
16163000,0.0324,0.013523,0.002678,0.000431,0.004584
16164000,0.0324,0.013523,0.002678,0.000431,0.005289
16165000,0.0324,0.013523,0.002678,0.000431,0.004936
16166000,0.0324,0.013523,0.002678,0.000431,0.004819
16167000,0.0324,0.013523,0.002678,0.000431,0.005054
16168000,0.0324,0.013523,0.002678,0.000431,0.005641
16169000,0.0324,0.013523,0.002678,0.000431,0.004936
16170000,0.0324,0.013523,0.002678,0.000431,0.004349
16171000,0.0324,0.013523,0.002678,0.000431,0.004936
16172000,0.0324,0.013523,0.002678,0.000431,0.005171
16173000,0.0324,0.013523,0.002678,0.000431,0.004231
16174000,0.0324,0.013523,0.002678,0.000431,0.004113
16175000,0.0324,0.013523,0.002678,0.000431,0.005289
16176000,0.0324,0.013523,0.002678,0.000431,0.005171
16177000,0.0324,0.013523,0.002678,0.000431,0.004701
16178000,0.0324,0.013523,0.002678,0.000431,0.004936
16179000,0.0324,0.013523,0.002678,0.000431,0.005054
16180000,0.0324,0.013523,0.002678,0.000431,0.005054
16181000,0.0324,0.013523,0.002678,0.000431,0.004584
16182000,0.0324,0.013523,0.002678,0.000431,0.005171
16183000,0.0324,0.013523,0.002678,0.000431,0.004349
16184000,0.0324,0.013523,0.002678,0.000431,0.004584
16185000,0.0324,0.013523,0.002678,0.000431,0.005524
16186000,0.0324,0.013523,0.002678,0.000431,0.005641
16187000,0.0324,0.013523,0.002678,0.000431,0.005054
16188000,0.0324,0.013523,0.002678,0.000431,0.005054
16189000,0.0324,0.013523,0.002678,0.000431,0.004936
16190000,0.0324,0.013523,0.002678,0.000431,0.004936
16191000,0.0324,0.013523,0.002678,0.000431,0.004819
16192000,0.0324,0.013523,0.002678,0.000431,0.004584
16193000,0.0324,0.013523,0.002678,0.000431,0.004231
16194000,0.0324,0.013523,0.002678,0.000431,0.004819
16195000,0.0324,0.013523,0.002678,0.000431,0.005054
16196000,0.0324,0.013523,0.002678,0.000431,0.004936
16197000,0.0324,0.013523,0.002678,0.000431,0.003996
16198000,0.0324,0.013523,0.002678,0.000431,0.005171
16199000,0.0324,0.013523,0.002678,0.000431,0.005054
16200000,0.0324,0.013523,0.002678,0.000431,0.004466
16201000,0.0324,0.013523,0.002678,0.000431,0.004584
16202000,0.0324,0.013523,0.002678,0.000431,0.005054
16203000,0.0324,0.013523,0.002678,0.000431,0.004701
16204000,0.0324,0.013523,0.002678,0.000431,0.005054
16205000,0.0324,0.013523,0.002678,0.000431,0.005171
16206000,0.0324,0.013523,0.002678,0.000431,0.005171
16207000,0.0324,0.013523,0.002678,0.000431,0.003996
16208000,0.0324,0.013523,0.002678,0.000431,0.004466
16209000,0.0324,0.013523,0.002678,0.000431,0.005054
16210000,0.0324,0.013523,0.002678,0.000431,0.004584
16211000,0.0324,0.013523,0.002678,0.000431,0.004701
16212000,0.0324,0.013523,0.002678,0.000431,0.005524
16213000,0.0324,0.013523,0.002678,0.000431,0.005406
16214000,0.0324,0.013523,0.002678,0.000431,0.004819
16215000,0.0324,0.013523,0.002678,0.000431,0.004231
16216000,0.0324,0.013523,0.002678,0.000431,0.005171
16217000,0.0324,0.013523,0.002678,0.000431,0.005054
16218000,0.0324,0.013523,0.002678,0.000431,0.004231
16219000,0.0324,0.013523,0.002678,0.000431,0.004466
16220000,0.0324,0.013523,0.002678,0.000431,0.004819
16221000,0.0324,0.013523,0.002678,0.000431,0.004819
16222000,0.0324,0.013523,0.002678,0.000431,0.004584
16223000,0.0324,0.013523,0.002678,0.000431,0.005641
16224000,0.0324,0.013523,0.002678,0.000431,0.005171
16225000,0.0324,0.013523,0.002678,0.000431,0.005054
16226000,0.0324,0.013523,0.002678,0.000431,0.005289
16227000,0.0324,0.013523,0.002678,0.000431,0.005289
16228000,0.0324,0.013523,0.002678,0.000431,0.004349
16229000,0.0324,0.013523,0.002678,0.000431,0.004819
16230000,0.0324,0.013523,0.002678,0.000431,0.005054
16231000,0.0324,0.013523,0.002678,0.000431,0.004701
16232000,0.0324,0.013523,0.002678,0.000431,0.004584
16233000,0.0324,0.013523,0.002678,0.000431,0.005054
16234000,0.0324,0.013523,0.002678,0.000431,0.004701
16235000,0.0324,0.013523,0.002678,0.000431,0.004936
16236000,0.0324,0.013523,0.002678,0.000431,0.004584
16237000,0.0324,0.013523,0.002678,0.000431,0.004701
16238000,0.0324,0.013523,0.002678,0.000431,0.005524
16239000,0.0324,0.013523,0.002678,0.000431,0.004231
16240000,0.0324,0.013523,0.002678,0.000431,0.005171
16241000,0.0324,0.013523,0.002678,0.000431,0.005054
16242000,0.0324,0.013523,0.002678,0.000431,0.005171
16243000,0.0324,0.013523,0.002678,0.000431,0.004466
16244000,0.0324,0.013523,0.002678,0.000431,0.004701
16245000,0.0324,0.013523,0.002678,0.000431,0.005054
16246000,0.0324,0.013523,0.002678,0.000431,0.004584
16247000,0.0324,0.013523,0.002678,0.000431,0.004701
16248000,0.0324,0.013523,0.002678,0.000431,0.004936
16249000,0.0324,0.013523,0.002678,0.000431,0.005171
16250000,0.0324,0.013523,0.002678,0.000431,0.005171
16251000,0.0324,0.013523,0.002678,0.000431,0.004701
16252000,0.0324,0.013523,0.002678,0.000431,0.004701
16253000,0.0324,0.013523,0.002678,0.000431,0.004701
16254000,0.0324,0.013523,0.002678,0.000431,0.005171
16255000,0.0324,0.013523,0.002678,0.000431,0.004701
16256000,0.0324,0.013523,0.002678,0.000431,0.004584
16257000,0.0324,0.013523,0.002678,0.000431,0.004819
16258000,0.0324,0.013523,0.002678,0.000431,0.004819
16259000,0.0324,0.013523,0.002678,0.000431,0.005171
16260000,0.0324,0.013523,0.002678,0.000431,0.004466
16261000,0.0324,0.013523,0.002678,0.000431,0.004466
16262000,0.0324,0.013523,0.002678,0.000431,0.005054
16263000,0.0324,0.013523,0.002678,0.000431,0.005054
16264000,0.0324,0.013523,0.002678,0.000431,0.005289
16265000,0.0324,0.013523,0.002678,0.000431,0.004584
16266000,0.0324,0.013523,0.002678,0.000431,0.004349
16267000,0.0324,0.013523,0.002678,0.000431,0.005406
16268000,0.0324,0.013523,0.002678,0.000431,0.005641
16269000,0.0324,0.013523,0.002678,0.000431,0.004584
16270000,0.0324,0.013523,0.002678,0.000431,0.004584
16271000,0.0324,0.013523,0.002678,0.000431,0.004936
16272000,0.0324,0.013523,0.002678,0.000431,0.004936
16273000,0.0324,0.013523,0.002678,0.000431,0.005054
16274000,0.0324,0.013523,0.002678,0.000431,0.004701
16275000,0.0324,0.013523,0.002678,0.000431,0.004936
16276000,0.0324,0.013523,0.002678,0.000431,0.005054
16277000,0.0324,0.013523,0.002678,0.000431,0.004466
16278000,0.0324,0.013523,0.002678,0.000431,0.004701
16279000,0.0324,0.013523,0.002678,0.000431,0.004466
16280000,0.0324,0.013523,0.002678,0.000431,0.005171
16281000,0.0324,0.013523,0.002678,0.000431,0.004819
16282000,0.0324,0.013523,0.002678,0.000431,0.004819
16283000,0.0324,0.013523,0.002678,0.000431,0.005406
16284000,0.0324,0.013523,0.002678,0.000431,0.004701
16285000,0.0324,0.013523,0.002678,0.000431,0.004466
16286000,0.0324,0.013523,0.002678,0.000431,0.004819
16287000,0.0324,0.013523,0.002678,0.000431,0.004701
16288000,0.0324,0.013523,0.002678,0.000431,0.005054
16289000,0.0324,0.013523,0.002678,0.000431,0.005054
16290000,0.0324,0.013523,0.002678,0.000431,0.004819
16291000,0.0324,0.013523,0.002678,0.000431,0.005054
16292000,0.0324,0.013523,0.002678,0.000431,0.004466
16293000,0.0324,0.013523,0.002678,0.000431,0.005759
16294000,0.0324,0.013523,0.002678,0.000431,0.005054
16295000,0.0324,0.013523,0.002678,0.000431,0.005406
16296000,0.0324,0.013523,0.002678,0.000431,0.004936
16297000,0.0324,0.013523,0.002678,0.000431,0.004113
16298000,0.0324,0.013523,0.002678,0.000431,0.005641
16299000,0.0324,0.013523,0.002678,0.000431,0.004466
16300000,0.0324,0.013523,0.002678,0.000431,0.004701
16301000,0.0324,0.013523,0.002678,0.000431,0.004936
16302000,0.0324,0.013523,0.002678,0.000431,0.004936
16303000,0.0324,0.013523,0.002678,0.000431,0.004819
16304000,0.0324,0.013523,0.002678,0.000431,0.004466
16305000,0.0324,0.013523,0.002678,0.000431,0.005406
16306000,0.0324,0.013523,0.002678,0.000431,0.004819
16307000,0.0324,0.013523,0.002678,0.000431,0.004466
16308000,0.0324,0.013523,0.002678,0.000431,0.004936
16309000,0.0324,0.013523,0.002678,0.000431,0.004584
16310000,0.0324,0.013523,0.002678,0.000431,0.004701
16311000,0.0324,0.013523,0.002678,0.000431,0.004936
16312000,0.0324,0.013523,0.002678,0.000431,0.004584
16313000,0.0324,0.013523,0.002678,0.000431,0.005054
16314000,0.0324,0.013523,0.002678,0.000431,0.004584
16315000,0.0324,0.013523,0.002678,0.000431,0.004936
16316000,0.0324,0.013523,0.002678,0.000431,0.005289
16317000,0.0324,0.013523,0.002678,0.000431,0.005054
16318000,0.0324,0.013523,0.002678,0.000431,0.004819
16319000,0.0324,0.013523,0.002678,0.000431,0.004819
16320000,0.0324,0.013523,0.002678,0.000431,0.004701
16321000,0.0324,0.013523,0.002678,0.000431,0.005054
16322000,0.0324,0.013523,0.002678,0.000431,0.005054
16323000,0.0324,0.013523,0.002678,0.000431,0.004466
16324000,0.0324,0.013523,0.002678,0.000431,0.005054
16325000,0.0324,0.013523,0.002678,0.000431,0.005054
16326000,0.0324,0.013523,0.002678,0.000431,0.004936
16327000,0.0324,0.013523,0.002678,0.000431,0.004113
16328000,0.0324,0.013523,0.002678,0.000431,0.004584
16329000,0.0324,0.013523,0.002678,0.000431,0.004231
16330000,0.0324,0.013523,0.002678,0.000431,0.005054
16331000,0.0324,0.013523,0.002678,0.000431,0.005289
16332000,0.0324,0.013523,0.002678,0.000431,0.004936
16333000,0.0324,0.013523,0.002678,0.000431,0.005054
16334000,0.0324,0.013523,0.002678,0.000431,0.004584
16335000,0.0324,0.013523,0.002678,0.000431,0.005641
16336000,0.0324,0.013523,0.002678,0.000431,0.004819
16337000,0.0324,0.013523,0.002678,0.000431,0.004231
16338000,0.0324,0.013523,0.002678,0.000431,0.004466
16339000,0.0324,0.013523,0.002678,0.000431,0.004466
16340000,0.0324,0.013523,0.002678,0.000431,0.004701
16341000,0.0324,0.013523,0.002678,0.000431,0.004584
16342000,0.0324,0.013523,0.002678,0.000431,0.005054
16343000,0.0324,0.013523,0.002678,0.000431,0.005406
16344000,0.0324,0.013523,0.002678,0.000431,0.004466
16345000,0.0324,0.013523,0.002678,0.000431,0.004584
16346000,0.0324,0.013523,0.002678,0.000431,0.005054
16347000,0.0324,0.013523,0.002678,0.000431,0.004113
16348000,0.0324,0.013523,0.002678,0.000431,0.005054
16349000,0.0324,0.013523,0.002678,0.000431,0.005054
16350000,0.0324,0.013523,0.002678,0.000431,0.005171
16351000,0.0324,0.013523,0.002678,0.000431,0.004584
16352000,0.0324,0.013523,0.002678,0.000431,0.004819
16353000,0.0324,0.013523,0.002678,0.000431,0.004819
16354000,0.0324,0.013523,0.002678,0.000431,0.004936
16355000,0.0324,0.013523,0.002678,0.000431,0.004701
16356000,0.0324,0.013523,0.002678,0.000431,0.004584
16357000,0.0324,0.013523,0.002678,0.000431,0.005054
16358000,0.0324,0.013523,0.002678,0.000431,0.004466
16359000,0.0324,0.013523,0.002678,0.000431,0.004584
16360000,0.0324,0.013523,0.002678,0.000431,0.003996
16361000,0.0324,0.013523,0.002678,0.000431,0.004819
16362000,0.0324,0.013523,0.002678,0.000431,0.005171
16363000,0.0324,0.013523,0.002678,0.000431,0.004819
16364000,0.0324,0.013523,0.002678,0.000431,0.004936
16365000,0.0324,0.013523,0.002678,0.000431,0.005289
16366000,0.0324,0.013523,0.002678,0.000431,0.005054
16367000,0.0324,0.013523,0.002678,0.000431,0.004701
16368000,0.0324,0.013523,0.002678,0.000431,0.004936
16369000,0.0324,0.013523,0.002678,0.000431,0.004584
16370000,0.0324,0.013523,0.002678,0.000431,0.005171
16371000,0.0324,0.013523,0.002678,0.000431,0.005054
16372000,0.0324,0.013523,0.002678,0.000431,0.005406
16373000,0.0324,0.013523,0.002678,0.000431,0.004701
16374000,0.0324,0.013523,0.002678,0.000431,0.004701
16375000,0.0324,0.013523,0.002678,0.000431,0.004936
16376000,0.0324,0.013523,0.002678,0.000431,0.005289
16377000,0.0324,0.013523,0.002678,0.000431,0.005171
16378000,0.0324,0.013523,0.002678,0.000431,0.004936
16379000,0.0324,0.013523,0.002678,0.000431,0.004819
16380000,0.0324,0.013523,0.002678,0.000431,0.004584
16381000,0.0324,0.013523,0.002678,0.000431,0.004349
16382000,0.0324,0.013523,0.002678,0.000431,0.004113
16383000,0.0324,0.013523,0.002678,0.000431,0.005524
16384000,0.0324,0.013523,0.002678,0.000431,0.004819
16385000,0.0324,0.013523,0.002678,0.000431,0.004936
16386000,0.0324,0.013523,0.002678,0.000431,0.005054
16387000,0.0324,0.013523,0.002678,0.000431,0.004584
16388000,0.0324,0.013523,0.002678,0.000431,0.004819
16389000,0.0324,0.013523,0.002678,0.000431,0.004349
16390000,0.0324,0.013523,0.002678,0.000431,0.004819
16391000,0.0324,0.013523,0.002678,0.000431,0.005289
16392000,0.0324,0.013523,0.002678,0.000431,0.004936
16393000,0.0324,0.013523,0.002678,0.000431,0.004936
16394000,0.0324,0.013523,0.002678,0.000431,0.005171
16395000,0.0324,0.013523,0.002678,0.000431,0.005289
16396000,0.0324,0.013523,0.002678,0.000431,0.004584
16397000,0.0324,0.013523,0.002678,0.000431,0.004701
16398000,0.0324,0.013523,0.002678,0.000431,0.005524
16399000,0.0324,0.013523,0.002678,0.000431,0.004701
16400000,0.0324,0.013523,0.002678,0.000431,0.004584
16401000,0.0324,0.013523,0.002678,0.000431,0.005171
16402000,0.0324,0.013523,0.002678,0.000431,0.005406
16403000,0.0324,0.013523,0.002678,0.000431,0.003878
16404000,0.0324,0.013523,0.002678,0.000431,0.004701
16405000,0.0324,0.013523,0.002678,0.000431,0.005406
16406000,0.0324,0.013523,0.002678,0.000431,0.004466
16407000,0.0324,0.013523,0.002678,0.000431,0.003878
16408000,0.0324,0.013523,0.002678,0.000431,0.005054
16409000,0.0324,0.013523,0.002678,0.000431,0.005171
16410000,0.0324,0.013523,0.002678,0.000431,0.004701
16411000,0.0324,0.013523,0.002678,0.000431,0.004819
16412000,0.0324,0.013523,0.002678,0.000431,0.005054
16413000,0.0324,0.013523,0.002678,0.000431,0.004819
16414000,0.0324,0.013523,0.002678,0.000431,0.005054
16415000,0.0324,0.013523,0.002678,0.000431,0.004584
16416000,0.0324,0.013523,0.002678,0.000431,0.004231
16417000,0.0324,0.013523,0.002678,0.000431,0.005524
16418000,0.0324,0.013523,0.002678,0.000431,0.005054
16419000,0.0324,0.013523,0.002678,0.000431,0.004701
16420000,0.0324,0.013523,0.002678,0.000431,0.004349
16421000,0.0324,0.013523,0.002678,0.000431,0.005054
16422000,0.0324,0.013523,0.002678,0.000431,0.004584
16423000,0.0324,0.013523,0.002678,0.000431,0.004701
16424000,0.0324,0.013523,0.002678,0.000431,0.005054
16425000,0.0324,0.013523,0.002678,0.000431,0.005054
16426000,0.0324,0.013523,0.002678,0.000431,0.004701
16427000,0.0324,0.013523,0.002678,0.000431,0.005171
16428000,0.0324,0.013523,0.002678,0.000431,0.004584
16429000,0.0324,0.013523,0.002678,0.000431,0.004701
16430000,0.0324,0.013523,0.002678,0.000431,0.004819
16431000,0.0324,0.013523,0.002678,0.000431,0.004701
16432000,0.0324,0.013523,0.002678,0.000431,0.004936
16433000,0.0324,0.013523,0.002678,0.000431,0.004819
16434000,0.0324,0.013523,0.002678,0.000431,0.004936
16435000,0.0324,0.013523,0.002678,0.000431,0.004936
16436000,0.0324,0.013523,0.002678,0.000431,0.004819
16437000,0.0324,0.013523,0.002678,0.000431,0.004701
16438000,0.0324,0.013523,0.002678,0.000431,0.004231
16439000,0.0324,0.013523,0.002678,0.000431,0.005759
16440000,0.0324,0.013523,0.002678,0.000431,0.004819
16441000,0.0324,0.013523,0.002678,0.000431,0.004819
16442000,0.0324,0.013523,0.002678,0.000431,0.004819
16443000,0.0324,0.013523,0.002678,0.000431,0.005171
16444000,0.0324,0.013523,0.002678,0.000431,0.004584
16445000,0.0324,0.013523,0.002678,0.000431,0.005054
16446000,0.0324,0.013523,0.002678,0.000431,0.005054
16447000,0.0324,0.013523,0.002678,0.000431,0.004819
16448000,0.0324,0.013523,0.002678,0.000431,0.005054
16449000,0.0324,0.013523,0.002678,0.000431,0.005289
16450000,0.0324,0.013523,0.002678,0.000431,0.004819
16451000,0.0324,0.013523,0.002678,0.000431,0.005054
16452000,0.0324,0.013523,0.002678,0.000431,0.004701
16453000,0.0324,0.013523,0.002678,0.000431,0.004819
16454000,0.0324,0.013523,0.002678,0.000431,0.004819
16455000,0.0324,0.013523,0.002678,0.000431,0.004584
16456000,0.0324,0.013523,0.002678,0.000431,0.005054
16457000,0.0324,0.013523,0.002678,0.000431,0.003996
16458000,0.0324,0.013523,0.002678,0.000431,0.005054
16459000,0.0324,0.013523,0.002678,0.000431,0.005406
16460000,0.0324,0.013523,0.002678,0.000431,0.003761
16461000,0.0324,0.013523,0.002678,0.000431,0.003408
16462000,0.0324,0.013523,0.002678,0.000431,0.003526
16463000,0.0324,0.013523,0.002678,0.000431,0.004113
16464000,0.0324,0.013523,0.002678,0.000431,0.004113
16465000,0.0324,0.013523,0.002678,0.000431,0.003878
16466000,0.0324,0.013523,0.002678,0.000431,0.004466
16467000,0.0324,0.013523,0.002678,0.000431,0.003643
16468000,0.0324,0.013523,0.002678,0.000431,0.003408
16469000,0.0324,0.013523,0.002678,0.000431,0.004584
16470000,0.0324,0.013523,0.002678,0.000431,0.004113
16471000,0.0324,0.013523,0.002678,0.000431,0.003408
16472000,0.0324,0.013523,0.002678,0.000431,0.003996
16473000,0.0324,0.013523,0.002678,0.000431,0.004701
16474000,0.0324,0.013523,0.002678,0.000431,0.003761
16475000,0.0324,0.013523,0.002678,0.000431,0.003761
16476000,0.0324,0.013523,0.002678,0.000431,0.004936
16477000,0.0324,0.013523,0.002678,0.000431,0.004349
16478000,0.0324,0.013523,0.002678,0.000431,0.003761
16479000,0.0324,0.013523,0.002678,0.000431,0.003056
16480000,0.0324,0.013523,0.002678,0.000431,0.004349
16481000,0.0324,0.013523,0.002678,0.000431,0.004231
16482000,0.0324,0.013523,0.002678,0.000431,0.004113
16483000,0.0324,0.013523,0.002678,0.000431,0.004349
16484000,0.0324,0.013523,0.002678,0.000431,0.004584
16485000,0.0324,0.013523,0.002678,0.000431,0.003996
16486000,0.0324,0.013523,0.002678,0.000431,0.004113
16487000,0.0324,0.013523,0.002678,0.000431,0.004466
16488000,0.0324,0.013523,0.002678,0.000431,0.003056
16489000,0.0324,0.013523,0.002678,0.000431,0.003996
16490000,0.0324,0.013523,0.002678,0.000431,0.003996
16491000,0.0324,0.013523,0.002678,0.000431,0.004701
16492000,0.0324,0.013523,0.002678,0.000431,0.003526
16493000,0.0324,0.013523,0.002678,0.000431,0.004231
16494000,0.0324,0.013523,0.002678,0.000431,0.004231
16495000,0.0324,0.013523,0.002678,0.000431,0.004466
16496000,0.0324,0.013523,0.002678,0.000431,0.003526
16497000,0.0324,0.013523,0.002678,0.000431,0.003761
16498000,0.0324,0.013523,0.002678,0.000431,0.003526
16499000,0.0324,0.013523,0.002678,0.000431,0.003291
16500000,0.0324,0.013523,0.002678,0.000431,0.005054
16501000,0.0324,0.013523,0.002678,0.000431,0.003761
16502000,0.0324,0.013523,0.002678,0.000431,0.004113
16503000,0.0324,0.013523,0.002678,0.000431,0.003291
16504000,0.0324,0.013523,0.002678,0.000431,0.003526
16505000,0.0324,0.013523,0.002678,0.000431,0.003643
16506000,0.0324,0.013523,0.002678,0.000431,0.003761
16507000,0.0324,0.013523,0.002678,0.000431,0.003291
16508000,0.0324,0.013523,0.002678,0.000431,0.003526
16509000,0.0324,0.013523,0.002678,0.000431,0.004113
16510000,0.0324,0.013523,0.002678,0.000431,0.004584
16511000,0.0324,0.013523,0.002678,0.000431,0.003173
16512000,0.0324,0.013523,0.002678,0.000431,0.003996
16513000,0.0324,0.013523,0.002678,0.000431,0.003761
16514000,0.0324,0.013523,0.002678,0.000431,0.003878
16515000,0.0324,0.013523,0.002678,0.000431,0.004113
16516000,0.0324,0.013523,0.002678,0.000431,0.003173
16517000,0.0324,0.013523,0.002678,0.000431,0.003761
16518000,0.0324,0.013523,0.002678,0.000431,0.003526
16519000,0.0324,0.013523,0.002678,0.000431,0.003643
16520000,0.0324,0.013523,0.002678,0.000431,0.004113
16521000,0.0324,0.013523,0.002678,0.000431,0.004584
16522000,0.0324,0.013523,0.002678,0.000431,0.003291
16523000,0.0324,0.013523,0.002678,0.000431,0.004113
16524000,0.0324,0.013523,0.002678,0.000431,0.004231
16525000,0.0324,0.013523,0.002678,0.000431,0.004466
16526000,0.0324,0.013523,0.002678,0.000431,0.004113
16527000,0.0324,0.013523,0.002678,0.000431,0.003408
16528000,0.0324,0.013523,0.002678,0.000431,0.003761
16529000,0.0324,0.013523,0.002678,0.000431,0.003408
16530000,0.0324,0.013523,0.002678,0.000431,0.004113
16531000,0.0324,0.013523,0.002678,0.000431,0.003408
16532000,0.0324,0.013523,0.002678,0.000431,0.003996
16533000,0.0324,0.013523,0.002678,0.000431,0.004231
16534000,0.0324,0.013523,0.002678,0.000431,0.003526
16535000,0.0324,0.013523,0.002678,0.000431,0.003291
16536000,0.0324,0.013523,0.002678,0.000431,0.003526
16537000,0.0324,0.013523,0.002678,0.000431,0.003408
16538000,0.0324,0.013523,0.002678,0.000431,0.003761
16539000,0.0324,0.013523,0.002678,0.000431,0.003643
16540000,0.0324,0.013523,0.002678,0.000431,0.002468
16541000,0.0324,0.013523,0.002678,0.000431,0.003761
16542000,0.0324,0.013523,0.002678,0.000431,0.003996
16543000,0.0324,0.013523,0.002678,0.000431,0.004231
16544000,0.0324,0.013523,0.002678,0.000431,0.003526
16545000,0.0324,0.013523,0.002678,0.000431,0.003056
16546000,0.0324,0.013523,0.002678,0.000431,0.003878
16547000,0.0324,0.013523,0.002678,0.000431,0.003761
16548000,0.0324,0.013523,0.002678,0.000431,0.003878
16549000,0.0324,0.013523,0.002678,0.000431,0.003761
16550000,0.0324,0.013523,0.002678,0.000431,0.003761
16551000,0.0324,0.013523,0.002678,0.000431,0.004584
16552000,0.0324,0.013523,0.002678,0.000431,0.003408
16553000,0.0324,0.013523,0.002678,0.000431,0.003526
16554000,0.0324,0.013523,0.002678,0.000431,0.003408
16555000,0.0324,0.013523,0.002678,0.000431,0.003408
16556000,0.0324,0.013523,0.002678,0.000431,0.003408
16557000,0.0324,0.013523,0.002678,0.000431,0.003878
16558000,0.0324,0.013523,0.002678,0.000431,0.003996
16559000,0.0324,0.013523,0.002678,0.000431,0.003643
16560000,0.0324,0.013523,0.002678,0.000431,0.003291
16561000,0.0324,0.013523,0.002678,0.000431,0.003526
16562000,0.0324,0.013523,0.002678,0.000431,0.004231
16563000,0.0324,0.013523,0.002678,0.000431,0.003643
16564000,0.0324,0.013523,0.002678,0.000431,0.004113
16565000,0.0324,0.013523,0.002678,0.000431,0.003408
16566000,0.0324,0.013523,0.002678,0.000431,0.004231
16567000,0.0324,0.013523,0.002678,0.000431,0.003526
16568000,0.0324,0.013523,0.002678,0.000431,0.003643
16569000,0.0324,0.013523,0.002678,0.000431,0.003173
16570000,0.0324,0.013523,0.002678,0.000431,0.003643
16571000,0.0324,0.013523,0.002678,0.000431,0.003761
16572000,0.0324,0.013523,0.002678,0.000431,0.003761
16573000,0.0324,0.013523,0.002678,0.000431,0.004113
16574000,0.0324,0.013523,0.002678,0.000431,0.003761
16575000,0.0324,0.013523,0.002678,0.000431,0.003761
16576000,0.0324,0.013523,0.002678,0.000431,0.003526
16577000,0.0324,0.013523,0.002678,0.000431,0.004231
16578000,0.0324,0.013523,0.002678,0.000431,0.003761
16579000,0.0324,0.013523,0.002678,0.000431,0.003408
16580000,0.0324,0.013523,0.002678,0.000431,0.003996
16581000,0.0324,0.013523,0.002678,0.000431,0.003526
16582000,0.0324,0.013523,0.002678,0.000431,0.004113
16583000,0.0324,0.013523,0.002678,0.000431,0.003643
16584000,0.0324,0.013523,0.002678,0.000431,0.003643
16585000,0.0324,0.013523,0.002678,0.000431,0.003996
16586000,0.0324,0.013523,0.002678,0.000431,0.003526
16587000,0.0324,0.013523,0.002678,0.000431,0.003643
16588000,0.0324,0.013523,0.002678,0.000431,0.004349
16589000,0.0324,0.013523,0.002678,0.000431,0.003761
16590000,0.0324,0.013523,0.002678,0.000431,0.004231
16591000,0.0324,0.013523,0.002678,0.000431,0.003643
16592000,0.0324,0.013523,0.002678,0.000431,0.003526
16593000,0.0324,0.013523,0.002678,0.000431,0.003878
16594000,0.0324,0.013523,0.002678,0.000431,0.003408
16595000,0.0324,0.013523,0.002678,0.000431,0.003643
16596000,0.0324,0.013523,0.002678,0.000431,0.003761
16597000,0.0324,0.013523,0.002678,0.000431,0.003526
16598000,0.0324,0.013523,0.002678,0.000431,0.003761
16599000,0.0324,0.013523,0.002678,0.000431,0.003643
16600000,0.0324,0.013523,0.002678,0.000431,0.003173
16601000,0.0324,0.013523,0.002678,0.000431,0.003526
16602000,0.0324,0.013523,0.002678,0.000431,0.003408
16603000,0.0324,0.013523,0.002678,0.000431,0.004466
16604000,0.0324,0.013523,0.002678,0.000431,0.003173
16605000,0.0324,0.013523,0.002678,0.000431,0.003761
16606000,0.0324,0.013523,0.002678,0.000431,0.002938
16607000,0.0324,0.013523,0.002678,0.000431,0.003291
16608000,0.0324,0.013523,0.002678,0.000431,0.003878
16609000,0.0324,0.013523,0.002678,0.000431,0.003408
16610000,0.0324,0.013523,0.002678,0.000431,0.003996
16611000,0.0324,0.013523,0.002678,0.000431,0.003761
16612000,0.0324,0.013523,0.002678,0.000431,0.003996
16613000,0.0324,0.013523,0.002678,0.000431,0.003996
16614000,0.0324,0.013523,0.002678,0.000431,0.004113
16615000,0.0324,0.013523,0.002678,0.000431,0.003173
16616000,0.0324,0.013523,0.002678,0.000431,0.003291
16617000,0.0324,0.013523,0.002678,0.000431,0.003291
16618000,0.0324,0.013523,0.002678,0.000431,0.004113
16619000,0.0324,0.013523,0.002678,0.000431,0.003173
16620000,0.0324,0.013523,0.002678,0.000431,0.003056
16621000,0.0324,0.013523,0.002678,0.000431,0.003408
16622000,0.0324,0.013523,0.002678,0.000431,0.003173
16623000,0.0324,0.013523,0.002678,0.000431,0.003056
16624000,0.0324,0.013523,0.002678,0.000431,0.003408
16625000,0.0324,0.013523,0.002678,0.000431,0.003173
16626000,0.0324,0.013523,0.002678,0.000431,0.003408
16627000,0.0324,0.013523,0.002678,0.000431,0.002938
16628000,0.0324,0.013523,0.002678,0.000431,0.003761
16629000,0.0324,0.013523,0.002678,0.000431,0.003526
16630000,0.0324,0.013523,0.002678,0.000431,0.002821
16631000,0.0324,0.013523,0.002678,0.000431,0.003761
16632000,0.0324,0.013523,0.002678,0.000431,0.003408
16633000,0.0324,0.013523,0.002678,0.000431,0.003056
16634000,0.0324,0.013523,0.002678,0.000431,0.003173
16635000,0.0324,0.013523,0.002678,0.000431,0.003408
16636000,0.0324,0.013523,0.002678,0.000431,0.003173
16637000,0.0324,0.013523,0.002678,0.000431,0.003526
16638000,0.0324,0.013523,0.002678,0.000431,0.003173
16639000,0.0324,0.013523,0.002678,0.000431,0.003173
16640000,0.0324,0.013523,0.002678,0.000431,0.003056
16641000,0.0324,0.013523,0.002678,0.000431,0.003408
16642000,0.0324,0.013523,0.002678,0.000431,0.003408
16643000,0.0324,0.013523,0.002678,0.000431,0.002821
16644000,0.0324,0.013523,0.002678,0.000431,0.002938
16645000,0.0324,0.013523,0.002678,0.000431,0.003761
16646000,0.0324,0.013523,0.002678,0.000431,0.003526
16647000,0.0324,0.013523,0.002678,0.000431,0.003291
16648000,0.0324,0.013523,0.002678,0.000431,0.003056
16649000,0.0324,0.013523,0.002678,0.000431,0.003526
16650000,0.0324,0.013523,0.002678,0.000431,0.003643
16651000,0.0324,0.013523,0.002678,0.000431,0.003526
16652000,0.0324,0.013523,0.002678,0.000431,0.003408
16653000,0.0324,0.013523,0.002678,0.000431,0.003878
16654000,0.0324,0.013523,0.002678,0.000431,0.003291
16655000,0.0324,0.013523,0.002678,0.000431,0.003056
16656000,0.0324,0.013523,0.002678,0.000431,0.003408
16657000,0.0324,0.013523,0.002678,0.000431,0.003056
16658000,0.0324,0.013523,0.002678,0.000431,0.003291
16659000,0.0324,0.013523,0.002678,0.000431,0.003291
16660000,0.0324,0.013523,0.002678,0.000431,0.002821
16661000,0.0324,0.013523,0.002678,0.000431,0.003291
16662000,0.0324,0.013523,0.002678,0.000431,0.003408
16663000,0.0324,0.013523,0.002678,0.000431,0.003526
16664000,0.0324,0.013523,0.002678,0.000431,0.003761
16665000,0.0324,0.013523,0.002678,0.000431,0.002586
16666000,0.0324,0.013523,0.002678,0.000431,0.002938
16667000,0.0324,0.013523,0.002678,0.000431,0.002938
16668000,0.0324,0.013523,0.002678,0.000431,0.003996
16669000,0.0324,0.013523,0.002678,0.000431,0.003173
16670000,0.0324,0.013523,0.002678,0.000431,0.004113
16671000,0.0324,0.013523,0.002678,0.000431,0.003643
16672000,0.0324,0.013523,0.002678,0.000431,0.002586
16673000,0.0324,0.013523,0.002678,0.000431,0.003173
16674000,0.0324,0.013523,0.002678,0.000431,0.003056
16675000,0.0324,0.013523,0.002678,0.000431,0.003291
16676000,0.0324,0.013523,0.002678,0.000431,0.003643
16677000,0.0324,0.013523,0.002678,0.000431,0.002938
16678000,0.0324,0.013523,0.002678,0.000431,0.003408
16679000,0.0324,0.013523,0.002678,0.000431,0.003526
16680000,0.0324,0.013523,0.002678,0.000431,0.002821
16681000,0.0324,0.013523,0.002678,0.000431,0.003526
16682000,0.0324,0.013523,0.002678,0.000431,0.003408
16683000,0.0324,0.013523,0.002678,0.000431,0.002938
16684000,0.0324,0.013523,0.002678,0.000431,0.003408
16685000,0.0324,0.013523,0.002678,0.000431,0.003056
16686000,0.0324,0.013523,0.002678,0.000431,0.003291
16687000,0.0324,0.013523,0.002678,0.000431,0.003408
16688000,0.0324,0.013523,0.002678,0.000431,0.003761
16689000,0.0324,0.013523,0.002678,0.000431,0.003291
16690000,0.0324,0.013523,0.002678,0.000431,0.003056
16691000,0.0324,0.013523,0.002678,0.000431,0.003173
16692000,0.0324,0.013523,0.002678,0.000431,0.003526
16693000,0.0324,0.013523,0.002678,0.000431,0.003761
16694000,0.0324,0.013523,0.002678,0.000431,0.003173
16695000,0.0324,0.013523,0.002678,0.000431,0.003173
16696000,0.0324,0.013523,0.002678,0.000431,0.003761
16697000,0.0324,0.013523,0.002678,0.000431,0.003173
16698000,0.0324,0.013523,0.002678,0.000431,0.003173
16699000,0.0324,0.013523,0.002678,0.000431,0.003291
16700000,0.0324,0.013523,0.002678,0.000431,0.003761
16701000,0.0324,0.013523,0.002678,0.000431,0.003173
16702000,0.0324,0.013523,0.002678,0.000431,0.003643
16703000,0.0324,0.013523,0.002678,0.000431,0.003643
16704000,0.0324,0.013523,0.002678,0.000431,0.002703
16705000,0.0324,0.013523,0.002678,0.000431,0.003878
16706000,0.0324,0.013523,0.002678,0.000431,0.003408
16707000,0.0324,0.013523,0.002678,0.000431,0.003291
16708000,0.0324,0.013523,0.002678,0.000431,0.002821
16709000,0.0324,0.013523,0.002678,0.000431,0.003878
16710000,0.0324,0.013523,0.002678,0.000431,0.003173
16711000,0.0324,0.013523,0.002678,0.000431,0.002703
16712000,0.0324,0.013523,0.002678,0.000431,0.003878
16713000,0.0324,0.013523,0.002678,0.000431,0.002703
16714000,0.0324,0.013523,0.002678,0.000431,0.003173
16715000,0.0324,0.013523,0.002678,0.000431,0.003408
16716000,0.0324,0.013523,0.002678,0.000431,0.002938
16717000,0.0324,0.013523,0.002678,0.000431,0.002938
16718000,0.0324,0.013523,0.002678,0.000431,0.003291
16719000,0.0324,0.013523,0.002678,0.000431,0.003878
16720000,0.0324,0.013523,0.002678,0.000431,0.002938
16721000,0.0324,0.013523,0.002678,0.000431,0.003408
16722000,0.0324,0.013523,0.002678,0.000431,0.003408
16723000,0.0324,0.013523,0.002678,0.000431,0.003291
16724000,0.0324,0.013523,0.002678,0.000431,0.003761
16725000,0.0324,0.013523,0.002678,0.000431,0.003408
16726000,0.0324,0.013523,0.002678,0.000431,0.002938
16727000,0.0324,0.013523,0.002678,0.000431,0.002703
16728000,0.0324,0.013523,0.002678,0.000431,0.003526
16729000,0.0324,0.013523,0.002678,0.000431,0.003526
16730000,0.0324,0.013523,0.002678,0.000431,0.002821
16731000,0.0324,0.013523,0.002678,0.000431,0.003408
16732000,0.0324,0.013523,0.002678,0.000431,0.003526
16733000,0.0324,0.013523,0.002678,0.000431,0.003526
16734000,0.0324,0.013523,0.002678,0.000431,0.003761
16735000,0.0324,0.013523,0.002678,0.000431,0.003526
16736000,0.0324,0.013523,0.002678,0.000431,0.003291
16737000,0.0324,0.013523,0.002678,0.000431,0.003878
16738000,0.0324,0.013523,0.002678,0.000431,0.003408
16739000,0.0324,0.013523,0.002678,0.000431,0.003056
16740000,0.0324,0.013523,0.002678,0.000431,0.003526
16741000,0.0324,0.013523,0.002678,0.000431,0.003291
16742000,0.0324,0.013523,0.002678,0.000431,0.003056
16743000,0.0324,0.013523,0.002678,0.000431,0.003173
16744000,0.0324,0.013523,0.002678,0.000431,0.003643
16745000,0.0324,0.013523,0.002678,0.000431,0.003173
16746000,0.0324,0.013523,0.002678,0.000431,0.003291
16747000,0.0324,0.013523,0.002678,0.000431,0.003408
16748000,0.0324,0.013523,0.002678,0.000431,0.003291
16749000,0.0324,0.013523,0.002678,0.000431,0.003173
16750000,0.0324,0.013523,0.002678,0.000431,0.003291
16751000,0.0324,0.013523,0.002678,0.000431,0.002821
16752000,0.0324,0.013523,0.002678,0.000431,0.003643
16753000,0.0324,0.013523,0.002678,0.000431,0.003056
16754000,0.0324,0.013523,0.002678,0.000431,0.002821
16755000,0.0324,0.013523,0.002678,0.000431,0.003643
16756000,0.0324,0.013523,0.002678,0.000431,0.003173
16757000,0.0324,0.013523,0.002678,0.000431,0.003526
16758000,0.0324,0.013523,0.002678,0.000431,0.003643
16759000,0.0324,0.013523,0.002678,0.000431,0.003408
16760000,0.0324,0.013523,0.002678,0.000431,0.002938
16761000,0.0324,0.013523,0.002678,0.000431,0.003643
16762000,0.0324,0.013523,0.002678,0.000431,0.003056
16763000,0.0324,0.013523,0.002678,0.000431,0.003526
16764000,0.0324,0.013523,0.002678,0.000431,0.003291
16765000,0.0324,0.013523,0.002678,0.000431,0.003291
16766000,0.0324,0.013523,0.002678,0.000431,0.003173
16767000,0.0324,0.013523,0.002678,0.000431,0.003761
16768000,0.0324,0.013523,0.002678,0.000431,0.003291
16769000,0.0324,0.013523,0.002678,0.000431,0.003643
16770000,0.0324,0.013523,0.002678,0.000431,0.003408
16771000,0.0324,0.013523,0.002678,0.000431,0.003291
16772000,0.0324,0.013523,0.002678,0.000431,0.002938
16773000,0.0324,0.013523,0.002678,0.000431,0.002938
16774000,0.0324,0.013523,0.002678,0.000431,0.003526
16775000,0.0324,0.013523,0.002678,0.000431,0.003408
16776000,0.0324,0.013523,0.002678,0.000431,0.003761
16777000,0.0324,0.013523,0.002678,0.000431,0.003408
16778000,0.0324,0.013523,0.002678,0.000431,0.003643
16779000,0.0324,0.013523,0.002678,0.000431,0.003056
16780000,0.0324,0.013523,0.002678,0.000431,0.002938
16781000,0.0324,0.013523,0.002678,0.000431,0.003408
16782000,0.0324,0.013523,0.002678,0.000431,0.003173
16783000,0.0324,0.013523,0.002678,0.000431,0.003526
16784000,0.0324,0.013523,0.002678,0.000431,0.003173
16785000,0.0324,0.013523,0.002678,0.000431,0.003056
16786000,0.0324,0.013523,0.002678,0.000431,0.003526
16787000,0.0324,0.013523,0.002678,0.000431,0.003173
16788000,0.0324,0.013523,0.002678,0.000431,0.003056
16789000,0.0324,0.013523,0.002678,0.000431,0.003526
16790000,0.0324,0.013523,0.002678,0.000431,0.003526
16791000,0.0324,0.013523,0.002678,0.000431,0.003526
16792000,0.0324,0.013523,0.002678,0.000431,0.002351
16793000,0.0324,0.013523,0.002678,0.000431,0.002821
16794000,0.0324,0.013523,0.002678,0.000431,0.002351
16795000,0.0324,0.013523,0.002678,0.000431,0.003173
16796000,0.0324,0.013523,0.002678,0.000431,0.003761
16797000,0.0324,0.013523,0.002678,0.000431,0.002938
16798000,0.0324,0.013523,0.002678,0.000431,0.003643
16799000,0.0324,0.013523,0.002678,0.000431,0.003173
16800000,0.0324,0.013523,0.002678,0.000431,0.003643
16801000,0.0324,0.013523,0.002678,0.000431,0.003291
16802000,0.0324,0.013523,0.002678,0.000431,0.003408
16803000,0.0324,0.013523,0.002678,0.000431,0.003408
16804000,0.0324,0.013523,0.002678,0.000431,0.003291
16805000,0.0324,0.013523,0.002678,0.000431,0.003526
16806000,0.0324,0.013523,0.002678,0.000431,0.003408
16807000,0.0324,0.013523,0.002678,0.000431,0.003173
16808000,0.0324,0.013523,0.002678,0.000431,0.003291
16809000,0.0324,0.013523,0.002678,0.000431,0.003878
16810000,0.0324,0.013523,0.002678,0.000431,0.003291
16811000,0.0324,0.013523,0.002678,0.000431,0.003056
16812000,0.0324,0.013523,0.002678,0.000431,0.002938
16813000,0.0324,0.013523,0.002678,0.000431,0.003056
16814000,0.0324,0.013523,0.002678,0.000431,0.002586
16815000,0.0324,0.013523,0.002678,0.000431,0.003173
16816000,0.0324,0.013523,0.002678,0.000431,0.002821
16817000,0.0324,0.013523,0.002678,0.000431,0.003408
16818000,0.0324,0.013523,0.002678,0.000431,0.003526
16819000,0.0324,0.013523,0.002678,0.000431,0.003173
16820000,0.0324,0.013523,0.002678,0.000431,0.002821
16821000,0.0324,0.013523,0.002678,0.000431,0.003761
16822000,0.0324,0.013523,0.002678,0.000431,0.003291
16823000,0.0324,0.013523,0.002678,0.000431,0.003526
16824000,0.0324,0.013523,0.002678,0.000431,0.003173
16825000,0.0324,0.013523,0.002678,0.000431,0.003173
16826000,0.0324,0.013523,0.002678,0.000431,0.003643
16827000,0.0324,0.013523,0.002678,0.000431,0.002821
16828000,0.0324,0.013523,0.002678,0.000431,0.003878
16829000,0.0324,0.013523,0.002678,0.000431,0.003173
16830000,0.0324,0.013523,0.002678,0.000431,0.003526
16831000,0.0324,0.013523,0.002678,0.000431,0.003526
16832000,0.0324,0.013523,0.002678,0.000431,0.003291
16833000,0.0324,0.013523,0.002678,0.000431,0.003173
16834000,0.0324,0.013523,0.002678,0.000431,0.003643
16835000,0.0324,0.013523,0.002678,0.000431,0.003408
16836000,0.0324,0.013523,0.002678,0.000431,0.003173
16837000,0.0324,0.013523,0.002678,0.000431,0.003173
16838000,0.0324,0.013523,0.002678,0.000431,0.003643
16839000,0.0324,0.013523,0.002678,0.000431,0.002938
16840000,0.0324,0.013523,0.002678,0.000431,0.003526
16841000,0.0324,0.013523,0.002678,0.000431,0.003408
16842000,0.0324,0.013523,0.002678,0.000431,0.003056
16843000,0.0324,0.013523,0.002678,0.000431,0.002821
16844000,0.0324,0.013523,0.002678,0.000431,0.002938
16845000,0.0324,0.013523,0.002678,0.000431,0.003526
16846000,0.0324,0.013523,0.002678,0.000431,0.003291
16847000,0.0324,0.013523,0.002678,0.000431,0.003173
16848000,0.0324,0.013523,0.002678,0.000431,0.003408
16849000,0.0324,0.013523,0.002678,0.000431,0.002468
16850000,0.0324,0.013523,0.002678,0.000431,0.002938
16851000,0.0324,0.013523,0.002678,0.000431,0.003173
16852000,0.0324,0.013523,0.002678,0.000431,0.003056
16853000,0.0324,0.013523,0.002678,0.000431,0.003291
16854000,0.0324,0.013523,0.002678,0.000431,0.003408
16855000,0.0324,0.013523,0.002678,0.000431,0.003056
16856000,0.0324,0.013523,0.002678,0.000431,0.003291
16857000,0.0324,0.013523,0.002678,0.000431,0.003173
16858000,0.0324,0.013523,0.002678,0.000431,0.003173
16859000,0.0324,0.013523,0.002678,0.000431,0.003173
16860000,0.0324,0.013523,0.002678,0.000431,0.003408
16861000,0.0324,0.013523,0.002678,0.000431,0.003291
16862000,0.0324,0.013523,0.002678,0.000431,0.003291
16863000,0.0324,0.013523,0.002678,0.000431,0.003643
16864000,0.0324,0.013523,0.002678,0.000431,0.002351
16865000,0.0324,0.013523,0.002678,0.000431,0.002821
16866000,0.0324,0.013523,0.002678,0.000431,0.003173
16867000,0.0324,0.013523,0.002678,0.000431,0.003291
16868000,0.0324,0.013523,0.002678,0.000431,0.003291
16869000,0.0324,0.013523,0.002678,0.000431,0.003526
16870000,0.0324,0.013523,0.002678,0.000431,0.002938
16871000,0.0324,0.013523,0.002678,0.000431,0.003761
16872000,0.0324,0.013523,0.002678,0.000431,0.003408
16873000,0.0324,0.013523,0.002678,0.000431,0.003643
16874000,0.0324,0.013523,0.002678,0.000431,0.003173
16875000,0.0324,0.013523,0.002678,0.000431,0.003643
16876000,0.0324,0.013523,0.002678,0.000431,0.003526
16877000,0.0324,0.013523,0.002678,0.000431,0.003408
16878000,0.0324,0.013523,0.002678,0.000431,0.003408
16879000,0.0324,0.013523,0.002678,0.000431,0.002938
16880000,0.0324,0.013523,0.002678,0.000431,0.002938
16881000,0.0324,0.013523,0.002678,0.000431,0.003526
16882000,0.0324,0.013523,0.002678,0.000431,0.002938
16883000,0.0324,0.013523,0.002678,0.000431,0.003291
16884000,0.0324,0.013523,0.002678,0.000431,0.002938
16885000,0.0324,0.013523,0.002678,0.000431,0.002938
16886000,0.0324,0.013523,0.002678,0.000431,0.003643
16887000,0.0324,0.013523,0.002678,0.000431,0.003173
16888000,0.0324,0.013523,0.002678,0.000431,0.002821
16889000,0.0324,0.013523,0.002678,0.000431,0.002703
16890000,0.0324,0.013523,0.002678,0.000431,0.003408
16891000,0.0324,0.013523,0.002678,0.000431,0.003056
16892000,0.0324,0.013523,0.002678,0.000431,0.003291
16893000,0.0324,0.013523,0.002678,0.000431,0.003291
16894000,0.0324,0.013523,0.002678,0.000431,0.003056
16895000,0.0324,0.013523,0.002678,0.000431,0.003761
16896000,0.0324,0.013523,0.002678,0.000431,0.003526
16897000,0.0324,0.013523,0.002678,0.000431,0.003173
16898000,0.0324,0.013523,0.002678,0.000431,0.003761
16899000,0.0324,0.013523,0.002678,0.000431,0.003173
16900000,0.0324,0.013523,0.002678,0.000431,0.003291
16901000,0.0324,0.013523,0.002678,0.000431,0.002703
16902000,0.0324,0.013523,0.002678,0.000431,0.003643
16903000,0.0324,0.013523,0.002678,0.000431,0.003291
16904000,0.0324,0.013523,0.002678,0.000431,0.003173
16905000,0.0324,0.013523,0.002678,0.000431,0.002468
16906000,0.0324,0.013523,0.002678,0.000431,0.003526
16907000,0.0324,0.013523,0.002678,0.000431,0.003526
16908000,0.0324,0.013523,0.002678,0.000431,0.003526
16909000,0.0324,0.013523,0.002678,0.000431,0.003408
16910000,0.0324,0.013523,0.002678,0.000431,0.003643
16911000,0.0324,0.013523,0.002678,0.000431,0.003056
16912000,0.0324,0.013523,0.002678,0.000431,0.003408
16913000,0.0324,0.013523,0.002678,0.000431,0.003291
16914000,0.0324,0.013523,0.002678,0.000431,0.003526
16915000,0.0324,0.013523,0.002678,0.000431,0.003408
16916000,0.0324,0.013523,0.002678,0.000431,0.003761
16917000,0.0324,0.013523,0.002678,0.000431,0.003643
16918000,0.0324,0.013523,0.002678,0.000431,0.003173
16919000,0.0324,0.013523,0.002678,0.000431,0.003173
16920000,0.0324,0.013523,0.002678,0.000431,0.003526
16921000,0.0324,0.013523,0.002678,0.000431,0.003291
16922000,0.0324,0.013523,0.002678,0.000431,0.003761
16923000,0.0324,0.013523,0.002678,0.000431,0.003173
16924000,0.0324,0.013523,0.002678,0.000431,0.003408
16925000,0.0324,0.013523,0.002678,0.000431,0.003643
16926000,0.0324,0.013523,0.002678,0.000431,0.002938
16927000,0.0324,0.013523,0.002678,0.000431,0.003643
16928000,0.0324,0.013523,0.002678,0.000431,0.003408
16929000,0.0324,0.013523,0.002678,0.000431,0.003056
16930000,0.0324,0.013523,0.002678,0.000431,0.003408
16931000,0.0324,0.013523,0.002678,0.000431,0.003643
16932000,0.0324,0.013523,0.002678,0.000431,0.003408
16933000,0.0324,0.013523,0.002678,0.000431,0.002586
16934000,0.0324,0.013523,0.002678,0.000431,0.003408
16935000,0.0324,0.013523,0.002678,0.000431,0.003291
16936000,0.0324,0.013523,0.002678,0.000431,0.003173
16937000,0.0324,0.013523,0.002678,0.000431,0.003761
16938000,0.0324,0.013523,0.002678,0.000431,0.003408
16939000,0.0324,0.013523,0.002678,0.000431,0.003408
16940000,0.0324,0.013523,0.002678,0.000431,0.003056
16941000,0.0324,0.013523,0.002678,0.000431,0.003291
16942000,0.0324,0.013523,0.002678,0.000431,0.002938
16943000,0.0324,0.013523,0.002678,0.000431,0.003408
16944000,0.0324,0.013523,0.002678,0.000431,0.002703
16945000,0.0324,0.013523,0.002678,0.000431,0.003643
16946000,0.0324,0.013523,0.002678,0.000431,0.003408
16947000,0.0324,0.013523,0.002678,0.000431,0.003173
16948000,0.0324,0.013523,0.002678,0.000431,0.003643
16949000,0.0324,0.013523,0.002678,0.000431,0.002938
16950000,0.0324,0.013523,0.002678,0.000431,0.003408
16951000,0.0324,0.013523,0.002678,0.000431,0.003056
16952000,0.0324,0.013523,0.002678,0.000431,0.003526
16953000,0.0324,0.013523,0.002678,0.000431,0.002938
16954000,0.0324,0.013523,0.002678,0.000431,0.003408
16955000,0.0324,0.013523,0.002678,0.000431,0.003761
16956000,0.0324,0.013523,0.002678,0.000431,0.003643
16957000,0.0324,0.013523,0.002678,0.000431,0.003526
16958000,0.0324,0.013523,0.002678,0.000431,0.003526
16959000,0.0324,0.013523,0.002678,0.000431,0.003056
16960000,0.0324,0.013523,0.002678,0.000431,0.003173
16961000,0.0324,0.013523,0.002678,0.000431,0.003291
16962000,0.0324,0.013523,0.002678,0.000431,0.003291
16963000,0.0324,0.013523,0.002678,0.000431,0.003291
16964000,0.0324,0.013523,0.002678,0.000431,0.002821
16965000,0.0324,0.013523,0.002678,0.000431,0.002938
16966000,0.0324,0.013523,0.002678,0.000431,0.003408
16967000,0.0324,0.013523,0.002678,0.000431,0.003408
16968000,0.0324,0.013523,0.002678,0.000431,0.003526
16969000,0.0324,0.013523,0.002678,0.000431,0.003056
16970000,0.0324,0.013523,0.002678,0.000431,0.003526
16971000,0.0324,0.013523,0.002678,0.000431,0.003761
16972000,0.0324,0.013523,0.002678,0.000431,0.003878
16973000,0.0324,0.013523,0.002678,0.000431,0.002703
16974000,0.0324,0.013523,0.002678,0.000431,0.003408
16975000,0.0324,0.013523,0.002678,0.000431,0.002821
16976000,0.0324,0.013523,0.002678,0.000431,0.002703
16977000,0.0324,0.013523,0.002678,0.000431,0.002938
16978000,0.0324,0.013523,0.002678,0.000431,0.003761
16979000,0.0324,0.013523,0.002678,0.000431,0.003291
16980000,0.0324,0.013523,0.002678,0.000431,0.003526
16981000,0.0324,0.013523,0.002678,0.000431,0.003173
16982000,0.0324,0.013523,0.002678,0.000431,0.003173
16983000,0.0324,0.013523,0.002678,0.000431,0.003056
16984000,0.0324,0.013523,0.002678,0.000431,0.003761
16985000,0.0324,0.013523,0.002678,0.000431,0.003056
16986000,0.0324,0.013523,0.002678,0.000431,0.003408
16987000,0.0324,0.013523,0.002678,0.000431,0.003526
16988000,0.0324,0.013523,0.002678,0.000431,0.003291
16989000,0.0324,0.013523,0.002678,0.000431,0.003408
16990000,0.0324,0.013523,0.002678,0.000431,0.003643
16991000,0.0324,0.013523,0.002678,0.000431,0.003643
16992000,0.0324,0.013523,0.002678,0.000431,0.003056
16993000,0.0324,0.013523,0.002678,0.000431,0.003291
16994000,0.0324,0.013523,0.002678,0.000431,0.003408
16995000,0.0324,0.013523,0.002678,0.000431,0.003643
16996000,0.0324,0.013523,0.002678,0.000431,0.003408
16997000,0.0324,0.013523,0.002678,0.000431,0.003056
16998000,0.0324,0.013523,0.002678,0.000431,0.003643
16999000,0.0324,0.013523,0.002678,0.000431,0.002938
