Cycle,Area(mm^2),PeakDynamic(W),SubthresholdLeakage(W),GateLeakage(W),RunTimeDynamic(W)
11000000,0.0324,0.013523,0.002678,0.000431,0.010930
11001000,0.0324,0.013523,0.002678,0.000431,0.010930
11002000,0.0324,0.013523,0.002678,0.000431,0.010695
11003000,0.0324,0.013523,0.002678,0.000431,0.011165
11004000,0.0324,0.013523,0.002678,0.000431,0.009990
11005000,0.0324,0.013523,0.002678,0.000431,0.012105
11006000,0.0324,0.013523,0.002678,0.000431,0.010930
11007000,0.0324,0.013523,0.002678,0.000431,0.011518
11008000,0.0324,0.013523,0.002678,0.000431,0.010342
11009000,0.0324,0.013523,0.002678,0.000431,0.011870
11010000,0.0324,0.013523,0.002678,0.000431,0.010342
11011000,0.0324,0.013523,0.002678,0.000431,0.011048
11012000,0.0324,0.013523,0.002678,0.000431,0.011753
11013000,0.0324,0.013523,0.002678,0.000431,0.011518
11014000,0.0324,0.013523,0.002678,0.000431,0.011518
11015000,0.0324,0.013523,0.002678,0.000431,0.011048
11016000,0.0324,0.013523,0.002678,0.000431,0.011283
11017000,0.0324,0.013523,0.002678,0.000431,0.009990
11018000,0.0324,0.013523,0.002678,0.000431,0.010813
11019000,0.0324,0.013523,0.002678,0.000431,0.012223
11020000,0.0324,0.013523,0.002678,0.000431,0.011283
11021000,0.0324,0.013523,0.002678,0.000431,0.010342
11022000,0.0324,0.013523,0.002678,0.000431,0.010225
11023000,0.0324,0.013523,0.002678,0.000431,0.010578
11024000,0.0324,0.013523,0.002678,0.000431,0.010342
11025000,0.0324,0.013523,0.002678,0.000431,0.010813
11026000,0.0324,0.013523,0.002678,0.000431,0.010695
11027000,0.0324,0.013523,0.002678,0.000431,0.009990
11028000,0.0324,0.013523,0.002678,0.000431,0.011400
11029000,0.0324,0.013523,0.002678,0.000431,0.011283
11030000,0.0324,0.013523,0.002678,0.000431,0.011048
11031000,0.0324,0.013523,0.002678,0.000431,0.010578
11032000,0.0324,0.013523,0.002678,0.000431,0.010813
11033000,0.0324,0.013523,0.002678,0.000431,0.010695
11034000,0.0324,0.013523,0.002678,0.000431,0.011283
11035000,0.0324,0.013523,0.002678,0.000431,0.012223
11036000,0.0324,0.013523,0.002678,0.000431,0.010225
11037000,0.0324,0.013523,0.002678,0.000431,0.011165
11038000,0.0324,0.013523,0.002678,0.000431,0.011753
11039000,0.0324,0.013523,0.002678,0.000431,0.012223
11040000,0.0324,0.013523,0.002678,0.000431,0.010342
11041000,0.0324,0.013523,0.002678,0.000431,0.011048
11042000,0.0324,0.013523,0.002678,0.000431,0.011988
11043000,0.0324,0.013523,0.002678,0.000431,0.011165
11044000,0.0324,0.013523,0.002678,0.000431,0.010342
11045000,0.0324,0.013523,0.002678,0.000431,0.011165
11046000,0.0324,0.013523,0.002678,0.000431,0.011283
11047000,0.0324,0.013523,0.002678,0.000431,0.010460
11048000,0.0324,0.013523,0.002678,0.000431,0.011048
11049000,0.0324,0.013523,0.002678,0.000431,0.010813
11050000,0.0324,0.013523,0.002678,0.000431,0.010107
11051000,0.0324,0.013523,0.002678,0.000431,0.010930
11052000,0.0324,0.013523,0.002678,0.000431,0.011048
11053000,0.0324,0.013523,0.002678,0.000431,0.009637
11054000,0.0324,0.013523,0.002678,0.000431,0.012223
11055000,0.0324,0.013523,0.002678,0.000431,0.011165
11056000,0.0324,0.013523,0.002678,0.000431,0.010930
11057000,0.0324,0.013523,0.002678,0.000431,0.011753
11058000,0.0324,0.013523,0.002678,0.000431,0.010107
11059000,0.0324,0.013523,0.002678,0.000431,0.012340
11060000,0.0324,0.013523,0.002678,0.000431,0.011165
11061000,0.0324,0.013523,0.002678,0.000431,0.010578
11062000,0.0324,0.013523,0.002678,0.000431,0.012693
11063000,0.0324,0.013523,0.002678,0.000431,0.010813
11064000,0.0324,0.013523,0.002678,0.000431,0.011988
11065000,0.0324,0.013523,0.002678,0.000431,0.010695
11066000,0.0324,0.013523,0.002678,0.000431,0.011165
11067000,0.0324,0.013523,0.002678,0.000431,0.009990
11068000,0.0324,0.013523,0.002678,0.000431,0.011870
11069000,0.0324,0.013523,0.002678,0.000431,0.010813
11070000,0.0324,0.013523,0.002678,0.000431,0.011048
11071000,0.0324,0.013523,0.002678,0.000431,0.011165
11072000,0.0324,0.013523,0.002678,0.000431,0.011635
11073000,0.0324,0.013523,0.002678,0.000431,0.010578
11074000,0.0324,0.013523,0.002678,0.000431,0.010460
11075000,0.0324,0.013523,0.002678,0.000431,0.011165
11076000,0.0324,0.013523,0.002678,0.000431,0.010930
11077000,0.0324,0.013523,0.002678,0.000431,0.010578
11078000,0.0324,0.013523,0.002678,0.000431,0.011518
11079000,0.0324,0.013523,0.002678,0.000431,0.011635
11080000,0.0324,0.013523,0.002678,0.000431,0.011753
11081000,0.0324,0.013523,0.002678,0.000431,0.010460
11082000,0.0324,0.013523,0.002678,0.000431,0.011283
11083000,0.0324,0.013523,0.002678,0.000431,0.010695
11084000,0.0324,0.013523,0.002678,0.000431,0.011048
11085000,0.0324,0.013523,0.002678,0.000431,0.011165
11086000,0.0324,0.013523,0.002678,0.000431,0.010342
11087000,0.0324,0.013523,0.002678,0.000431,0.010930
11088000,0.0324,0.013523,0.002678,0.000431,0.011165
11089000,0.0324,0.013523,0.002678,0.000431,0.011870
11090000,0.0324,0.013523,0.002678,0.000431,0.010695
11091000,0.0324,0.013523,0.002678,0.000431,0.011048
11092000,0.0324,0.013523,0.002678,0.000431,0.012223
11093000,0.0324,0.013523,0.002678,0.000431,0.010930
11094000,0.0324,0.013523,0.002678,0.000431,0.010930
11095000,0.0324,0.013523,0.002678,0.000431,0.011400
11096000,0.0324,0.013523,0.002678,0.000431,0.011518
11097000,0.0324,0.013523,0.002678,0.000431,0.010695
11098000,0.0324,0.013523,0.002678,0.000431,0.010578
11099000,0.0324,0.013523,0.002678,0.000431,0.011635
11100000,0.0324,0.013523,0.002678,0.000431,0.011635
11101000,0.0324,0.013523,0.002678,0.000431,0.011988
11102000,0.0324,0.013523,0.002678,0.000431,0.011518
11103000,0.0324,0.013523,0.002678,0.000431,0.009990
11104000,0.0324,0.013523,0.002678,0.000431,0.011518
11105000,0.0324,0.013523,0.002678,0.000431,0.012105
11106000,0.0324,0.013523,0.002678,0.000431,0.012105
11107000,0.0324,0.013523,0.002678,0.000431,0.011283
11108000,0.0324,0.013523,0.002678,0.000431,0.010578
11109000,0.0324,0.013523,0.002678,0.000431,0.011753
11110000,0.0324,0.013523,0.002678,0.000431,0.010225
11111000,0.0324,0.013523,0.002678,0.000431,0.010813
11112000,0.0324,0.013523,0.002678,0.000431,0.011988
11113000,0.0324,0.013523,0.002678,0.000431,0.010695
11114000,0.0324,0.013523,0.002678,0.000431,0.010578
11115000,0.0324,0.013523,0.002678,0.000431,0.011988
11116000,0.0324,0.013523,0.002678,0.000431,0.010930
11117000,0.0324,0.013523,0.002678,0.000431,0.010578
11118000,0.0324,0.013523,0.002678,0.000431,0.011283
11119000,0.0324,0.013523,0.002678,0.000431,0.011165
11120000,0.0324,0.013523,0.002678,0.000431,0.009872
11121000,0.0324,0.013523,0.002678,0.000431,0.011635
11122000,0.0324,0.013523,0.002678,0.000431,0.011988
11123000,0.0324,0.013523,0.002678,0.000431,0.010695
11124000,0.0324,0.013523,0.002678,0.000431,0.011048
11125000,0.0324,0.013523,0.002678,0.000431,0.011753
11126000,0.0324,0.013523,0.002678,0.000431,0.011048
11127000,0.0324,0.013523,0.002678,0.000431,0.011165
11128000,0.0324,0.013523,0.002678,0.000431,0.011400
11129000,0.0324,0.013523,0.002678,0.000431,0.011165
11130000,0.0324,0.013523,0.002678,0.000431,0.011048
11131000,0.0324,0.013523,0.002678,0.000431,0.009520
11132000,0.0324,0.013523,0.002678,0.000431,0.011635
11133000,0.0324,0.013523,0.002678,0.000431,0.010342
11134000,0.0324,0.013523,0.002678,0.000431,0.011635
11135000,0.0324,0.013523,0.002678,0.000431,0.010813
11136000,0.0324,0.013523,0.002678,0.000431,0.010813
11137000,0.0324,0.013523,0.002678,0.000431,0.011048
11138000,0.0324,0.013523,0.002678,0.000431,0.011048
11139000,0.0324,0.013523,0.002678,0.000431,0.011283
11140000,0.0324,0.013523,0.002678,0.000431,0.010460
11141000,0.0324,0.013523,0.002678,0.000431,0.010460
11142000,0.0324,0.013523,0.002678,0.000431,0.011283
11143000,0.0324,0.013523,0.002678,0.000431,0.011283
11144000,0.0324,0.013523,0.002678,0.000431,0.011165
11145000,0.0324,0.013523,0.002678,0.000431,0.011283
11146000,0.0324,0.013523,0.002678,0.000431,0.010930
11147000,0.0324,0.013523,0.002678,0.000431,0.011283
11148000,0.0324,0.013523,0.002678,0.000431,0.011048
11149000,0.0324,0.013523,0.002678,0.000431,0.010107
11150000,0.0324,0.013523,0.002678,0.000431,0.010107
11151000,0.0324,0.013523,0.002678,0.000431,0.011283
11152000,0.0324,0.013523,0.002678,0.000431,0.011400
11153000,0.0324,0.013523,0.002678,0.000431,0.010930
11154000,0.0324,0.013523,0.002678,0.000431,0.012105
11155000,0.0324,0.013523,0.002678,0.000431,0.010695
11156000,0.0324,0.013523,0.002678,0.000431,0.010342
11157000,0.0324,0.013523,0.002678,0.000431,0.010460
11158000,0.0324,0.013523,0.002678,0.000431,0.010930
11159000,0.0324,0.013523,0.002678,0.000431,0.010578
11160000,0.0324,0.013523,0.002678,0.000431,0.010695
11161000,0.0324,0.013523,0.002678,0.000431,0.010695
11162000,0.0324,0.013523,0.002678,0.000431,0.011635
11163000,0.0324,0.013523,0.002678,0.000431,0.010107
11164000,0.0324,0.013523,0.002678,0.000431,0.011048
11165000,0.0324,0.013523,0.002678,0.000431,0.012223
11166000,0.0324,0.013523,0.002678,0.000431,0.009872
11167000,0.0324,0.013523,0.002678,0.000431,0.010930
11168000,0.0324,0.013523,0.002678,0.000431,0.010225
11169000,0.0324,0.013523,0.002678,0.000431,0.010107
11170000,0.0324,0.013523,0.002678,0.000431,0.010930
11171000,0.0324,0.013523,0.002678,0.000431,0.011518
11172000,0.0324,0.013523,0.002678,0.000431,0.010813
11173000,0.0324,0.013523,0.002678,0.000431,0.010225
11174000,0.0324,0.013523,0.002678,0.000431,0.010930
11175000,0.0324,0.013523,0.002678,0.000431,0.010107
11176000,0.0324,0.013523,0.002678,0.000431,0.011635
11177000,0.0324,0.013523,0.002678,0.000431,0.009872
11178000,0.0324,0.013523,0.002678,0.000431,0.011283
11179000,0.0324,0.013523,0.002678,0.000431,0.010342
11180000,0.0324,0.013523,0.002678,0.000431,0.010460
11181000,0.0324,0.013523,0.002678,0.000431,0.009402
11182000,0.0324,0.013523,0.002678,0.000431,0.009520
11183000,0.0324,0.013523,0.002678,0.000431,0.011048
11184000,0.0324,0.013523,0.002678,0.000431,0.009990
11185000,0.0324,0.013523,0.002678,0.000431,0.009755
11186000,0.0324,0.013523,0.002678,0.000431,0.009990
11187000,0.0324,0.013523,0.002678,0.000431,0.010225
11188000,0.0324,0.013523,0.002678,0.000431,0.009872
11189000,0.0324,0.013523,0.002678,0.000431,0.010578
11190000,0.0324,0.013523,0.002678,0.000431,0.010578
11191000,0.0324,0.013523,0.002678,0.000431,0.009402
11192000,0.0324,0.013523,0.002678,0.000431,0.008580
11193000,0.0324,0.013523,0.002678,0.000431,0.010460
11194000,0.0324,0.013523,0.002678,0.000431,0.009285
11195000,0.0324,0.013523,0.002678,0.000431,0.010578
11196000,0.0324,0.013523,0.002678,0.000431,0.010225
11197000,0.0324,0.013523,0.002678,0.000431,0.009990
11198000,0.0324,0.013523,0.002678,0.000431,0.009990
11199000,0.0324,0.013523,0.002678,0.000431,0.010107
11200000,0.0324,0.013523,0.002678,0.000431,0.010813
11201000,0.0324,0.013523,0.002678,0.000431,0.011048
11202000,0.0324,0.013523,0.002678,0.000431,0.010460
11203000,0.0324,0.013523,0.002678,0.000431,0.010813
11204000,0.0324,0.013523,0.002678,0.000431,0.009990
11205000,0.0324,0.013523,0.002678,0.000431,0.008932
11206000,0.0324,0.013523,0.002678,0.000431,0.010342
11207000,0.0324,0.013523,0.002678,0.000431,0.010813
11208000,0.0324,0.013523,0.002678,0.000431,0.009755
11209000,0.0324,0.013523,0.002678,0.000431,0.010342
11210000,0.0324,0.013523,0.002678,0.000431,0.010460
11211000,0.0324,0.013523,0.002678,0.000431,0.011165
11212000,0.0324,0.013523,0.002678,0.000431,0.010578
11213000,0.0324,0.013523,0.002678,0.000431,0.009872
11214000,0.0324,0.013523,0.002678,0.000431,0.009637
11215000,0.0324,0.013523,0.002678,0.000431,0.008815
11216000,0.0324,0.013523,0.002678,0.000431,0.011283
11217000,0.0324,0.013523,0.002678,0.000431,0.009520
11218000,0.0324,0.013523,0.002678,0.000431,0.009637
11219000,0.0324,0.013523,0.002678,0.000431,0.010107
11220000,0.0324,0.013523,0.002678,0.000431,0.009402
11221000,0.0324,0.013523,0.002678,0.000431,0.010930
11222000,0.0324,0.013523,0.002678,0.000431,0.011048
11223000,0.0324,0.013523,0.002678,0.000431,0.010930
11224000,0.0324,0.013523,0.002678,0.000431,0.010342
11225000,0.0324,0.013523,0.002678,0.000431,0.010225
11226000,0.0324,0.013523,0.002678,0.000431,0.010695
11227000,0.0324,0.013523,0.002678,0.000431,0.009637
11228000,0.0324,0.013523,0.002678,0.000431,0.009520
11229000,0.0324,0.013523,0.002678,0.000431,0.010107
11230000,0.0324,0.013523,0.002678,0.000431,0.009637
11231000,0.0324,0.013523,0.002678,0.000431,0.009990
11232000,0.0324,0.013523,0.002678,0.000431,0.010930
11233000,0.0324,0.013523,0.002678,0.000431,0.010695
11234000,0.0324,0.013523,0.002678,0.000431,0.011165
11235000,0.0324,0.013523,0.002678,0.000431,0.009872
11236000,0.0324,0.013523,0.002678,0.000431,0.009402
11237000,0.0324,0.013523,0.002678,0.000431,0.009285
11238000,0.0324,0.013523,0.002678,0.000431,0.009755
11239000,0.0324,0.013523,0.002678,0.000431,0.011283
11240000,0.0324,0.013523,0.002678,0.000431,0.009755
11241000,0.0324,0.013523,0.002678,0.000431,0.009872
11242000,0.0324,0.013523,0.002678,0.000431,0.010107
11243000,0.0324,0.013523,0.002678,0.000431,0.011048
11244000,0.0324,0.013523,0.002678,0.000431,0.009990
11245000,0.0324,0.013523,0.002678,0.000431,0.010930
11246000,0.0324,0.013523,0.002678,0.000431,0.009872
11247000,0.0324,0.013523,0.002678,0.000431,0.010578
11248000,0.0324,0.013523,0.002678,0.000431,0.010460
11249000,0.0324,0.013523,0.002678,0.000431,0.010225
11250000,0.0324,0.013523,0.002678,0.000431,0.009520
11251000,0.0324,0.013523,0.002678,0.000431,0.009637
11252000,0.0324,0.013523,0.002678,0.000431,0.010930
11253000,0.0324,0.013523,0.002678,0.000431,0.010578
11254000,0.0324,0.013523,0.002678,0.000431,0.010107
11255000,0.0324,0.013523,0.002678,0.000431,0.011165
11256000,0.0324,0.013523,0.002678,0.000431,0.011048
11257000,0.0324,0.013523,0.002678,0.000431,0.009637
11258000,0.0324,0.013523,0.002678,0.000431,0.009872
11259000,0.0324,0.013523,0.002678,0.000431,0.010107
11260000,0.0324,0.013523,0.002678,0.000431,0.009637
11261000,0.0324,0.013523,0.002678,0.000431,0.009637
11262000,0.0324,0.013523,0.002678,0.000431,0.011048
11263000,0.0324,0.013523,0.002678,0.000431,0.009637
11264000,0.0324,0.013523,0.002678,0.000431,0.010813
11265000,0.0324,0.013523,0.002678,0.000431,0.010930
11266000,0.0324,0.013523,0.002678,0.000431,0.010107
11267000,0.0324,0.013523,0.002678,0.000431,0.011283
11268000,0.0324,0.013523,0.002678,0.000431,0.010930
11269000,0.0324,0.013523,0.002678,0.000431,0.011518
11270000,0.0324,0.013523,0.002678,0.000431,0.009520
11271000,0.0324,0.013523,0.002678,0.000431,0.009990
11272000,0.0324,0.013523,0.002678,0.000431,0.010342
11273000,0.0324,0.013523,0.002678,0.000431,0.009990
11274000,0.0324,0.013523,0.002678,0.000431,0.010813
11275000,0.0324,0.013523,0.002678,0.000431,0.010930
11276000,0.0324,0.013523,0.002678,0.000431,0.009755
11277000,0.0324,0.013523,0.002678,0.000431,0.010342
11278000,0.0324,0.013523,0.002678,0.000431,0.010342
11279000,0.0324,0.013523,0.002678,0.000431,0.010460
11280000,0.0324,0.013523,0.002678,0.000431,0.010225
11281000,0.0324,0.013523,0.002678,0.000431,0.010225
11282000,0.0324,0.013523,0.002678,0.000431,0.010930
11283000,0.0324,0.013523,0.002678,0.000431,0.009402
11284000,0.0324,0.013523,0.002678,0.000431,0.009520
11285000,0.0324,0.013523,0.002678,0.000431,0.012340
11286000,0.0324,0.013523,0.002678,0.000431,0.010107
11287000,0.0324,0.013523,0.002678,0.000431,0.010695
11288000,0.0324,0.013523,0.002678,0.000431,0.009755
11289000,0.0324,0.013523,0.002678,0.000431,0.010578
11290000,0.0324,0.013523,0.002678,0.000431,0.009402
11291000,0.0324,0.013523,0.002678,0.000431,0.009637
11292000,0.0324,0.013523,0.002678,0.000431,0.010578
11293000,0.0324,0.013523,0.002678,0.000431,0.010578
11294000,0.0324,0.013523,0.002678,0.000431,0.010225
11295000,0.0324,0.013523,0.002678,0.000431,0.011048
11296000,0.0324,0.013523,0.002678,0.000431,0.010930
11297000,0.0324,0.013523,0.002678,0.000431,0.009167
11298000,0.0324,0.013523,0.002678,0.000431,0.011988
11299000,0.0324,0.013523,0.002678,0.000431,0.010342
11300000,0.0324,0.013523,0.002678,0.000431,0.010342
11301000,0.0324,0.013523,0.002678,0.000431,0.010342
11302000,0.0324,0.013523,0.002678,0.000431,0.009872
11303000,0.0324,0.013523,0.002678,0.000431,0.010107
11304000,0.0324,0.013523,0.002678,0.000431,0.009990
11305000,0.0324,0.013523,0.002678,0.000431,0.010342
11306000,0.0324,0.013523,0.002678,0.000431,0.010107
11307000,0.0324,0.013523,0.002678,0.000431,0.008932
11308000,0.0324,0.013523,0.002678,0.000431,0.010930
11309000,0.0324,0.013523,0.002678,0.000431,0.010813
11310000,0.0324,0.013523,0.002678,0.000431,0.010695
11311000,0.0324,0.013523,0.002678,0.000431,0.011400
11312000,0.0324,0.013523,0.002678,0.000431,0.010107
11313000,0.0324,0.013523,0.002678,0.000431,0.008697
11314000,0.0324,0.013523,0.002678,0.000431,0.012223
11315000,0.0324,0.013523,0.002678,0.000431,0.009520
11316000,0.0324,0.013523,0.002678,0.000431,0.009872
11317000,0.0324,0.013523,0.002678,0.000431,0.010107
11318000,0.0324,0.013523,0.002678,0.000431,0.010695
11319000,0.0324,0.013523,0.002678,0.000431,0.009872
11320000,0.0324,0.013523,0.002678,0.000431,0.010578
11321000,0.0324,0.013523,0.002678,0.000431,0.011400
11322000,0.0324,0.013523,0.002678,0.000431,0.010695
11323000,0.0324,0.013523,0.002678,0.000431,0.010460
11324000,0.0324,0.013523,0.002678,0.000431,0.009755
11325000,0.0324,0.013523,0.002678,0.000431,0.010460
11326000,0.0324,0.013523,0.002678,0.000431,0.010342
11327000,0.0324,0.013523,0.002678,0.000431,0.010460
11328000,0.0324,0.013523,0.002678,0.000431,0.011048
11329000,0.0324,0.013523,0.002678,0.000431,0.009520
11330000,0.0324,0.013523,0.002678,0.000431,0.009637
11331000,0.0324,0.013523,0.002678,0.000431,0.011635
11332000,0.0324,0.013523,0.002678,0.000431,0.009167
11333000,0.0324,0.013523,0.002678,0.000431,0.010578
11334000,0.0324,0.013523,0.002678,0.000431,0.010225
11335000,0.0324,0.013523,0.002678,0.000431,0.009050
11336000,0.0324,0.013523,0.002678,0.000431,0.010813
11337000,0.0324,0.013523,0.002678,0.000431,0.010225
11338000,0.0324,0.013523,0.002678,0.000431,0.011870
11339000,0.0324,0.013523,0.002678,0.000431,0.010930
11340000,0.0324,0.013523,0.002678,0.000431,0.011753
11341000,0.0324,0.013523,0.002678,0.000431,0.010107
11342000,0.0324,0.013523,0.002678,0.000431,0.009990
11343000,0.0324,0.013523,0.002678,0.000431,0.011048
11344000,0.0324,0.013523,0.002678,0.000431,0.010460
11345000,0.0324,0.013523,0.002678,0.000431,0.010578
11346000,0.0324,0.013523,0.002678,0.000431,0.009990
11347000,0.0324,0.013523,0.002678,0.000431,0.011165
11348000,0.0324,0.013523,0.002678,0.000431,0.009520
11349000,0.0324,0.013523,0.002678,0.000431,0.010578
11350000,0.0324,0.013523,0.002678,0.000431,0.009285
11351000,0.0324,0.013523,0.002678,0.000431,0.010813
11352000,0.0324,0.013523,0.002678,0.000431,0.009872
11353000,0.0324,0.013523,0.002678,0.000431,0.010342
11354000,0.0324,0.013523,0.002678,0.000431,0.010107
11355000,0.0324,0.013523,0.002678,0.000431,0.011165
11356000,0.0324,0.013523,0.002678,0.000431,0.010695
11357000,0.0324,0.013523,0.002678,0.000431,0.009990
11358000,0.0324,0.013523,0.002678,0.000431,0.009872
11359000,0.0324,0.013523,0.002678,0.000431,0.009990
11360000,0.0324,0.013523,0.002678,0.000431,0.009285
11361000,0.0324,0.013523,0.002678,0.000431,0.011283
11362000,0.0324,0.013523,0.002678,0.000431,0.009637
11363000,0.0324,0.013523,0.002678,0.000431,0.010342
11364000,0.0324,0.013523,0.002678,0.000431,0.011283
11365000,0.0324,0.013523,0.002678,0.000431,0.009637
11366000,0.0324,0.013523,0.002678,0.000431,0.009990
11367000,0.0324,0.013523,0.002678,0.000431,0.010107
11368000,0.0324,0.013523,0.002678,0.000431,0.011518
11369000,0.0324,0.013523,0.002678,0.000431,0.009050
11370000,0.0324,0.013523,0.002678,0.000431,0.010578
11371000,0.0324,0.013523,0.002678,0.000431,0.010225
11372000,0.0324,0.013523,0.002678,0.000431,0.010225
11373000,0.0324,0.013523,0.002678,0.000431,0.010695
11374000,0.0324,0.013523,0.002678,0.000431,0.009637
11375000,0.0324,0.013523,0.002678,0.000431,0.009990
11376000,0.0324,0.013523,0.002678,0.000431,0.010578
11377000,0.0324,0.013523,0.002678,0.000431,0.011870
11378000,0.0324,0.013523,0.002678,0.000431,0.009402
11379000,0.0324,0.013523,0.002678,0.000431,0.010460
11380000,0.0324,0.013523,0.002678,0.000431,0.011165
11381000,0.0324,0.013523,0.002678,0.000431,0.011870
11382000,0.0324,0.013523,0.002678,0.000431,0.009402
11383000,0.0324,0.013523,0.002678,0.000431,0.011400
11384000,0.0324,0.013523,0.002678,0.000431,0.010460
11385000,0.0324,0.013523,0.002678,0.000431,0.010342
11386000,0.0324,0.013523,0.002678,0.000431,0.010813
11387000,0.0324,0.013523,0.002678,0.000431,0.009990
11388000,0.0324,0.013523,0.002678,0.000431,0.009285
11389000,0.0324,0.013523,0.002678,0.000431,0.010578
11390000,0.0324,0.013523,0.002678,0.000431,0.011400
11391000,0.0324,0.013523,0.002678,0.000431,0.010813
11392000,0.0324,0.013523,0.002678,0.000431,0.009402
11393000,0.0324,0.013523,0.002678,0.000431,0.010225
11394000,0.0324,0.013523,0.002678,0.000431,0.011048
11395000,0.0324,0.013523,0.002678,0.000431,0.009755
11396000,0.0324,0.013523,0.002678,0.000431,0.010342
11397000,0.0324,0.013523,0.002678,0.000431,0.010225
11398000,0.0324,0.013523,0.002678,0.000431,0.010930
11399000,0.0324,0.013523,0.002678,0.000431,0.010813
11400000,0.0324,0.013523,0.002678,0.000431,0.010578
11401000,0.0324,0.013523,0.002678,0.000431,0.011635
11402000,0.0324,0.013523,0.002678,0.000431,0.010225
11403000,0.0324,0.013523,0.002678,0.000431,0.011518
11404000,0.0324,0.013523,0.002678,0.000431,0.010813
11405000,0.0324,0.013523,0.002678,0.000431,0.009872
11406000,0.0324,0.013523,0.002678,0.000431,0.010225
11407000,0.0324,0.013523,0.002678,0.000431,0.010578
11408000,0.0324,0.013523,0.002678,0.000431,0.010342
11409000,0.0324,0.013523,0.002678,0.000431,0.010342
11410000,0.0324,0.013523,0.002678,0.000431,0.010107
11411000,0.0324,0.013523,0.002678,0.000431,0.010813
11412000,0.0324,0.013523,0.002678,0.000431,0.010107
11413000,0.0324,0.013523,0.002678,0.000431,0.010225
11414000,0.0324,0.013523,0.002678,0.000431,0.011753
11415000,0.0324,0.013523,0.002678,0.000431,0.010813
11416000,0.0324,0.013523,0.002678,0.000431,0.010342
11417000,0.0324,0.013523,0.002678,0.000431,0.010578
11418000,0.0324,0.013523,0.002678,0.000431,0.009990
11419000,0.0324,0.013523,0.002678,0.000431,0.010695
11420000,0.0324,0.013523,0.002678,0.000431,0.010578
11421000,0.0324,0.013523,0.002678,0.000431,0.009402
11422000,0.0324,0.013523,0.002678,0.000431,0.010930
11423000,0.0324,0.013523,0.002678,0.000431,0.010460
11424000,0.0324,0.013523,0.002678,0.000431,0.009872
11425000,0.0324,0.013523,0.002678,0.000431,0.010460
11426000,0.0324,0.013523,0.002678,0.000431,0.010225
11427000,0.0324,0.013523,0.002678,0.000431,0.011753
11428000,0.0324,0.013523,0.002678,0.000431,0.009755
11429000,0.0324,0.013523,0.002678,0.000431,0.010107
11430000,0.0324,0.013523,0.002678,0.000431,0.011048
11431000,0.0324,0.013523,0.002678,0.000431,0.010225
11432000,0.0324,0.013523,0.002678,0.000431,0.010342
11433000,0.0324,0.013523,0.002678,0.000431,0.009990
11434000,0.0324,0.013523,0.002678,0.000431,0.011518
11435000,0.0324,0.013523,0.002678,0.000431,0.010578
11436000,0.0324,0.013523,0.002678,0.000431,0.009637
11437000,0.0324,0.013523,0.002678,0.000431,0.010930
11438000,0.0324,0.013523,0.002678,0.000431,0.010225
11439000,0.0324,0.013523,0.002678,0.000431,0.009990
11440000,0.0324,0.013523,0.002678,0.000431,0.009402
11441000,0.0324,0.013523,0.002678,0.000431,0.010107
11442000,0.0324,0.013523,0.002678,0.000431,0.010460
11443000,0.0324,0.013523,0.002678,0.000431,0.010342
11444000,0.0324,0.013523,0.002678,0.000431,0.012458
11445000,0.0324,0.013523,0.002678,0.000431,0.010342
11446000,0.0324,0.013523,0.002678,0.000431,0.010225
11447000,0.0324,0.013523,0.002678,0.000431,0.011165
11448000,0.0324,0.013523,0.002678,0.000431,0.010225
11449000,0.0324,0.013523,0.002678,0.000431,0.009402
11450000,0.0324,0.013523,0.002678,0.000431,0.011988
11451000,0.0324,0.013523,0.002678,0.000431,0.009990
11452000,0.0324,0.013523,0.002678,0.000431,0.010460
11453000,0.0324,0.013523,0.002678,0.000431,0.010342
11454000,0.0324,0.013523,0.002678,0.000431,0.010107
11455000,0.0324,0.013523,0.002678,0.000431,0.010813
11456000,0.0324,0.013523,0.002678,0.000431,0.010930
11457000,0.0324,0.013523,0.002678,0.000431,0.010578
11458000,0.0324,0.013523,0.002678,0.000431,0.009872
11459000,0.0324,0.013523,0.002678,0.000431,0.009990
11460000,0.0324,0.013523,0.002678,0.000431,0.011283
11461000,0.0324,0.013523,0.002678,0.000431,0.011635
11462000,0.0324,0.013523,0.002678,0.000431,0.008697
11463000,0.0324,0.013523,0.002678,0.000431,0.010107
11464000,0.0324,0.013523,0.002678,0.000431,0.010930
11465000,0.0324,0.013523,0.002678,0.000431,0.011518
11466000,0.0324,0.013523,0.002678,0.000431,0.010813
11467000,0.0324,0.013523,0.002678,0.000431,0.009872
11468000,0.0324,0.013523,0.002678,0.000431,0.009990
11469000,0.0324,0.013523,0.002678,0.000431,0.009990
11470000,0.0324,0.013523,0.002678,0.000431,0.009755
11471000,0.0324,0.013523,0.002678,0.000431,0.010460
11472000,0.0324,0.013523,0.002678,0.000431,0.010578
11473000,0.0324,0.013523,0.002678,0.000431,0.011283
11474000,0.0324,0.013523,0.002678,0.000431,0.009167
11475000,0.0324,0.013523,0.002678,0.000431,0.010930
11476000,0.0324,0.013523,0.002678,0.000431,0.010695
11477000,0.0324,0.013523,0.002678,0.000431,0.010342
11478000,0.0324,0.013523,0.002678,0.000431,0.010225
11479000,0.0324,0.013523,0.002678,0.000431,0.010342
11480000,0.0324,0.013523,0.002678,0.000431,0.010578
11481000,0.0324,0.013523,0.002678,0.000431,0.008697
11482000,0.0324,0.013523,0.002678,0.000431,0.010460
11483000,0.0324,0.013523,0.002678,0.000431,0.011048
11484000,0.0324,0.013523,0.002678,0.000431,0.010342
11485000,0.0324,0.013523,0.002678,0.000431,0.011048
11486000,0.0324,0.013523,0.002678,0.000431,0.010930
11487000,0.0324,0.013523,0.002678,0.000431,0.009755
11488000,0.0324,0.013523,0.002678,0.000431,0.010225
11489000,0.0324,0.013523,0.002678,0.000431,0.011048
11490000,0.0324,0.013523,0.002678,0.000431,0.010695
11491000,0.0324,0.013523,0.002678,0.000431,0.010107
11492000,0.0324,0.013523,0.002678,0.000431,0.009402
11493000,0.0324,0.013523,0.002678,0.000431,0.010695
11494000,0.0324,0.013523,0.002678,0.000431,0.010813
11495000,0.0324,0.013523,0.002678,0.000431,0.010460
11496000,0.0324,0.013523,0.002678,0.000431,0.010460
11497000,0.0324,0.013523,0.002678,0.000431,0.010813
11498000,0.0324,0.013523,0.002678,0.000431,0.010813
11499000,0.0324,0.013523,0.002678,0.000431,0.010107
11500000,0.0324,0.013523,0.002678,0.000431,0.010578
11501000,0.0324,0.013523,0.002678,0.000431,0.009755
11502000,0.0324,0.013523,0.002678,0.000431,0.009872
11503000,0.0324,0.013523,0.002678,0.000431,0.011635
11504000,0.0324,0.013523,0.002678,0.000431,0.009520
11505000,0.0324,0.013523,0.002678,0.000431,0.008345
11506000,0.0324,0.013523,0.002678,0.000431,0.010578
11507000,0.0324,0.013523,0.002678,0.000431,0.009872
11508000,0.0324,0.013523,0.002678,0.000431,0.010460
11509000,0.0324,0.013523,0.002678,0.000431,0.010342
11510000,0.0324,0.013523,0.002678,0.000431,0.010813
11511000,0.0324,0.013523,0.002678,0.000431,0.010930
11512000,0.0324,0.013523,0.002678,0.000431,0.010107
11513000,0.0324,0.013523,0.002678,0.000431,0.011635
11514000,0.0324,0.013523,0.002678,0.000431,0.009755
11515000,0.0324,0.013523,0.002678,0.000431,0.009990
11516000,0.0324,0.013523,0.002678,0.000431,0.011870
11517000,0.0324,0.013523,0.002678,0.000431,0.008697
11518000,0.0324,0.013523,0.002678,0.000431,0.010342
11519000,0.0324,0.013523,0.002678,0.000431,0.011635
11520000,0.0324,0.013523,0.002678,0.000431,0.010225
11521000,0.0324,0.013523,0.002678,0.000431,0.010460
11522000,0.0324,0.013523,0.002678,0.000431,0.010342
11523000,0.0324,0.013523,0.002678,0.000431,0.011400
11524000,0.0324,0.013523,0.002678,0.000431,0.009402
11525000,0.0324,0.013523,0.002678,0.000431,0.010578
11526000,0.0324,0.013523,0.002678,0.000431,0.010225
11527000,0.0324,0.013523,0.002678,0.000431,0.009755
11528000,0.0324,0.013523,0.002678,0.000431,0.010695
11529000,0.0324,0.013523,0.002678,0.000431,0.010460
11530000,0.0324,0.013523,0.002678,0.000431,0.011048
11531000,0.0324,0.013523,0.002678,0.000431,0.010225
11532000,0.0324,0.013523,0.002678,0.000431,0.010225
11533000,0.0324,0.013523,0.002678,0.000431,0.010813
11534000,0.0324,0.013523,0.002678,0.000431,0.010930
11535000,0.0324,0.013523,0.002678,0.000431,0.010578
11536000,0.0324,0.013523,0.002678,0.000431,0.011165
11537000,0.0324,0.013523,0.002678,0.000431,0.010107
11538000,0.0324,0.013523,0.002678,0.000431,0.009285
11539000,0.0324,0.013523,0.002678,0.000431,0.011283
11540000,0.0324,0.013523,0.002678,0.000431,0.010578
11541000,0.0324,0.013523,0.002678,0.000431,0.010460
11542000,0.0324,0.013523,0.002678,0.000431,0.011165
11543000,0.0324,0.013523,0.002678,0.000431,0.011165
11544000,0.0324,0.013523,0.002678,0.000431,0.009990
11545000,0.0324,0.013523,0.002678,0.000431,0.010578
11546000,0.0324,0.013523,0.002678,0.000431,0.011048
11547000,0.0324,0.013523,0.002678,0.000431,0.010695
11548000,0.0324,0.013523,0.002678,0.000431,0.009637
11549000,0.0324,0.013523,0.002678,0.000431,0.010695
11550000,0.0324,0.013523,0.002678,0.000431,0.010460
11551000,0.0324,0.013523,0.002678,0.000431,0.010107
11552000,0.0324,0.013523,0.002678,0.000431,0.009755
11553000,0.0324,0.013523,0.002678,0.000431,0.010225
11554000,0.0324,0.013523,0.002678,0.000431,0.010342
11555000,0.0324,0.013523,0.002678,0.000431,0.009755
11556000,0.0324,0.013523,0.002678,0.000431,0.011048
11557000,0.0324,0.013523,0.002678,0.000431,0.011165
11558000,0.0324,0.013523,0.002678,0.000431,0.010813
11559000,0.0324,0.013523,0.002678,0.000431,0.009755
11560000,0.0324,0.013523,0.002678,0.000431,0.010930
11561000,0.0324,0.013523,0.002678,0.000431,0.010695
11562000,0.0324,0.013523,0.002678,0.000431,0.009637
11563000,0.0324,0.013523,0.002678,0.000431,0.010225
11564000,0.0324,0.013523,0.002678,0.000431,0.009402
11565000,0.0324,0.013523,0.002678,0.000431,0.010695
11566000,0.0324,0.013523,0.002678,0.000431,0.011165
11567000,0.0324,0.013523,0.002678,0.000431,0.009990
11568000,0.0324,0.013523,0.002678,0.000431,0.010695
11569000,0.0324,0.013523,0.002678,0.000431,0.010225
11570000,0.0324,0.013523,0.002678,0.000431,0.011165
11571000,0.0324,0.013523,0.002678,0.000431,0.010107
11572000,0.0324,0.013523,0.002678,0.000431,0.010813
11573000,0.0324,0.013523,0.002678,0.000431,0.009637
11574000,0.0324,0.013523,0.002678,0.000431,0.010460
11575000,0.0324,0.013523,0.002678,0.000431,0.010107
11576000,0.0324,0.013523,0.002678,0.000431,0.009872
11577000,0.0324,0.013523,0.002678,0.000431,0.010930
11578000,0.0324,0.013523,0.002678,0.000431,0.010460
11579000,0.0324,0.013523,0.002678,0.000431,0.010342
11580000,0.0324,0.013523,0.002678,0.000431,0.009167
11581000,0.0324,0.013523,0.002678,0.000431,0.010813
11582000,0.0324,0.013523,0.002678,0.000431,0.011400
11583000,0.0324,0.013523,0.002678,0.000431,0.009755
11584000,0.0324,0.013523,0.002678,0.000431,0.010695
11585000,0.0324,0.013523,0.002678,0.000431,0.010695
11586000,0.0324,0.013523,0.002678,0.000431,0.010578
11587000,0.0324,0.013523,0.002678,0.000431,0.010813
11588000,0.0324,0.013523,0.002678,0.000431,0.011048
11589000,0.0324,0.013523,0.002678,0.000431,0.011753
11590000,0.0324,0.013523,0.002678,0.000431,0.009050
11591000,0.0324,0.013523,0.002678,0.000431,0.011518
11592000,0.0324,0.013523,0.002678,0.000431,0.011048
11593000,0.0324,0.013523,0.002678,0.000431,0.009755
11594000,0.0324,0.013523,0.002678,0.000431,0.010813
11595000,0.0324,0.013523,0.002678,0.000431,0.011283
11596000,0.0324,0.013523,0.002678,0.000431,0.010107
11597000,0.0324,0.013523,0.002678,0.000431,0.009520
11598000,0.0324,0.013523,0.002678,0.000431,0.009990
11599000,0.0324,0.013523,0.002678,0.000431,0.009990
11600000,0.0324,0.013523,0.002678,0.000431,0.010695
11601000,0.0324,0.013523,0.002678,0.000431,0.010578
11602000,0.0324,0.013523,0.002678,0.000431,0.011753
11603000,0.0324,0.013523,0.002678,0.000431,0.009402
11604000,0.0324,0.013523,0.002678,0.000431,0.011048
11605000,0.0324,0.013523,0.002678,0.000431,0.010813
11606000,0.0324,0.013523,0.002678,0.000431,0.009637
11607000,0.0324,0.013523,0.002678,0.000431,0.010342
11608000,0.0324,0.013523,0.002678,0.000431,0.010460
11609000,0.0324,0.013523,0.002678,0.000431,0.009990
11610000,0.0324,0.013523,0.002678,0.000431,0.010225
11611000,0.0324,0.013523,0.002678,0.000431,0.009285
11612000,0.0324,0.013523,0.002678,0.000431,0.011283
11613000,0.0324,0.013523,0.002678,0.000431,0.009637
11614000,0.0324,0.013523,0.002678,0.000431,0.010813
11615000,0.0324,0.013523,0.002678,0.000431,0.010342
11616000,0.0324,0.013523,0.002678,0.000431,0.009285
11617000,0.0324,0.013523,0.002678,0.000431,0.010813
11618000,0.0324,0.013523,0.002678,0.000431,0.011048
11619000,0.0324,0.013523,0.002678,0.000431,0.010930
11620000,0.0324,0.013523,0.002678,0.000431,0.009872
11621000,0.0324,0.013523,0.002678,0.000431,0.010460
11622000,0.0324,0.013523,0.002678,0.000431,0.011048
11623000,0.0324,0.013523,0.002678,0.000431,0.010695
11624000,0.0324,0.013523,0.002678,0.000431,0.010578
11625000,0.0324,0.013523,0.002678,0.000431,0.011518
11626000,0.0324,0.013523,0.002678,0.000431,0.010695
11627000,0.0324,0.013523,0.002678,0.000431,0.010225
11628000,0.0324,0.013523,0.002678,0.000431,0.010342
11629000,0.0324,0.013523,0.002678,0.000431,0.010342
11630000,0.0324,0.013523,0.002678,0.000431,0.010695
11631000,0.0324,0.013523,0.002678,0.000431,0.009285
11632000,0.0324,0.013523,0.002678,0.000431,0.011518
11633000,0.0324,0.013523,0.002678,0.000431,0.010107
11634000,0.0324,0.013523,0.002678,0.000431,0.010578
11635000,0.0324,0.013523,0.002678,0.000431,0.010225
11636000,0.0324,0.013523,0.002678,0.000431,0.010578
11637000,0.0324,0.013523,0.002678,0.000431,0.009755
11638000,0.0324,0.013523,0.002678,0.000431,0.010107
11639000,0.0324,0.013523,0.002678,0.000431,0.010460
11640000,0.0324,0.013523,0.002678,0.000431,0.010342
11641000,0.0324,0.013523,0.002678,0.000431,0.010578
11642000,0.0324,0.013523,0.002678,0.000431,0.009755
11643000,0.0324,0.013523,0.002678,0.000431,0.009285
11644000,0.0324,0.013523,0.002678,0.000431,0.010813
11645000,0.0324,0.013523,0.002678,0.000431,0.010225
11646000,0.0324,0.013523,0.002678,0.000431,0.009872
11647000,0.0324,0.013523,0.002678,0.000431,0.012223
11648000,0.0324,0.013523,0.002678,0.000431,0.010695
11649000,0.0324,0.013523,0.002678,0.000431,0.009637
11650000,0.0324,0.013523,0.002678,0.000431,0.010107
11651000,0.0324,0.013523,0.002678,0.000431,0.009872
11652000,0.0324,0.013523,0.002678,0.000431,0.010695
11653000,0.0324,0.013523,0.002678,0.000431,0.010225
11654000,0.0324,0.013523,0.002678,0.000431,0.009402
11655000,0.0324,0.013523,0.002678,0.000431,0.011283
11656000,0.0324,0.013523,0.002678,0.000431,0.009990
11657000,0.0324,0.013523,0.002678,0.000431,0.009520
11658000,0.0324,0.013523,0.002678,0.000431,0.010930
11659000,0.0324,0.013523,0.002678,0.000431,0.009872
11660000,0.0324,0.013523,0.002678,0.000431,0.010342
11661000,0.0324,0.013523,0.002678,0.000431,0.011635
11662000,0.0324,0.013523,0.002678,0.000431,0.010578
11663000,0.0324,0.013523,0.002678,0.000431,0.010578
11664000,0.0324,0.013523,0.002678,0.000431,0.009637
11665000,0.0324,0.013523,0.002678,0.000431,0.011283
11666000,0.0324,0.013523,0.002678,0.000431,0.010813
11667000,0.0324,0.013523,0.002678,0.000431,0.009167
11668000,0.0324,0.013523,0.002678,0.000431,0.011165
11669000,0.0324,0.013523,0.002678,0.000431,0.009637
11670000,0.0324,0.013523,0.002678,0.000431,0.009285
11671000,0.0324,0.013523,0.002678,0.000431,0.010342
11672000,0.0324,0.013523,0.002678,0.000431,0.009285
11673000,0.0324,0.013523,0.002678,0.000431,0.010460
11674000,0.0324,0.013523,0.002678,0.000431,0.009167
11675000,0.0324,0.013523,0.002678,0.000431,0.009402
11676000,0.0324,0.013523,0.002678,0.000431,0.010695
11677000,0.0324,0.013523,0.002678,0.000431,0.010813
11678000,0.0324,0.013523,0.002678,0.000431,0.010930
11679000,0.0324,0.013523,0.002678,0.000431,0.009872
11680000,0.0324,0.013523,0.002678,0.000431,0.010460
11681000,0.0324,0.013523,0.002678,0.000431,0.010460
11682000,0.0324,0.013523,0.002678,0.000431,0.010460
11683000,0.0324,0.013523,0.002678,0.000431,0.011048
11684000,0.0324,0.013523,0.002678,0.000431,0.010930
11685000,0.0324,0.013523,0.002678,0.000431,0.010225
11686000,0.0324,0.013523,0.002678,0.000431,0.009637
11687000,0.0324,0.013523,0.002678,0.000431,0.010107
11688000,0.0324,0.013523,0.002678,0.000431,0.010225
11689000,0.0324,0.013523,0.002678,0.000431,0.009285
11690000,0.0324,0.013523,0.002678,0.000431,0.011283
11691000,0.0324,0.013523,0.002678,0.000431,0.011283
11692000,0.0324,0.013523,0.002678,0.000431,0.010342
11693000,0.0324,0.013523,0.002678,0.000431,0.010460
11694000,0.0324,0.013523,0.002678,0.000431,0.010578
11695000,0.0324,0.013523,0.002678,0.000431,0.009167
11696000,0.0324,0.013523,0.002678,0.000431,0.010578
11697000,0.0324,0.013523,0.002678,0.000431,0.010930
11698000,0.0324,0.013523,0.002678,0.000431,0.010813
11699000,0.0324,0.013523,0.002678,0.000431,0.009637
11700000,0.0324,0.013523,0.002678,0.000431,0.011283
11701000,0.0324,0.013523,0.002678,0.000431,0.010695
11702000,0.0324,0.013523,0.002678,0.000431,0.009755
11703000,0.0324,0.013523,0.002678,0.000431,0.010225
11704000,0.0324,0.013523,0.002678,0.000431,0.010930
11705000,0.0324,0.013523,0.002678,0.000431,0.010695
11706000,0.0324,0.013523,0.002678,0.000431,0.009637
11707000,0.0324,0.013523,0.002678,0.000431,0.010695
11708000,0.0324,0.013523,0.002678,0.000431,0.010342
11709000,0.0324,0.013523,0.002678,0.000431,0.010342
11710000,0.0324,0.013523,0.002678,0.000431,0.010342
11711000,0.0324,0.013523,0.002678,0.000431,0.011753
11712000,0.0324,0.013523,0.002678,0.000431,0.009755
11713000,0.0324,0.013523,0.002678,0.000431,0.009637
11714000,0.0324,0.013523,0.002678,0.000431,0.010578
11715000,0.0324,0.013523,0.002678,0.000431,0.009402
11716000,0.0324,0.013523,0.002678,0.000431,0.009872
11717000,0.0324,0.013523,0.002678,0.000431,0.010813
11718000,0.0324,0.013523,0.002678,0.000431,0.010460
11719000,0.0324,0.013523,0.002678,0.000431,0.010107
11720000,0.0324,0.013523,0.002678,0.000431,0.010578
11721000,0.0324,0.013523,0.002678,0.000431,0.011400
11722000,0.0324,0.013523,0.002678,0.000431,0.009050
11723000,0.0324,0.013523,0.002678,0.000431,0.010342
11724000,0.0324,0.013523,0.002678,0.000431,0.009637
11725000,0.0324,0.013523,0.002678,0.000431,0.010107
11726000,0.0324,0.013523,0.002678,0.000431,0.009167
11727000,0.0324,0.013523,0.002678,0.000431,0.010578
11728000,0.0324,0.013523,0.002678,0.000431,0.010225
11729000,0.0324,0.013523,0.002678,0.000431,0.011048
11730000,0.0324,0.013523,0.002678,0.000431,0.010107
11731000,0.0324,0.013523,0.002678,0.000431,0.011165
11732000,0.0324,0.013523,0.002678,0.000431,0.010813
11733000,0.0324,0.013523,0.002678,0.000431,0.009872
11734000,0.0324,0.013523,0.002678,0.000431,0.011283
11735000,0.0324,0.013523,0.002678,0.000431,0.010107
11736000,0.0324,0.013523,0.002678,0.000431,0.010225
11737000,0.0324,0.013523,0.002678,0.000431,0.010342
11738000,0.0324,0.013523,0.002678,0.000431,0.011048
11739000,0.0324,0.013523,0.002678,0.000431,0.010342
11740000,0.0324,0.013523,0.002678,0.000431,0.010107
11741000,0.0324,0.013523,0.002678,0.000431,0.010695
11742000,0.0324,0.013523,0.002678,0.000431,0.009990
11743000,0.0324,0.013523,0.002678,0.000431,0.009402
11744000,0.0324,0.013523,0.002678,0.000431,0.010578
11745000,0.0324,0.013523,0.002678,0.000431,0.011048
11746000,0.0324,0.013523,0.002678,0.000431,0.009872
11747000,0.0324,0.013523,0.002678,0.000431,0.009755
11748000,0.0324,0.013523,0.002678,0.000431,0.010813
11749000,0.0324,0.013523,0.002678,0.000431,0.010930
11750000,0.0324,0.013523,0.002678,0.000431,0.008697
11751000,0.0324,0.013523,0.002678,0.000431,0.011165
11752000,0.0324,0.013523,0.002678,0.000431,0.009872
11753000,0.0324,0.013523,0.002678,0.000431,0.009637
11754000,0.0324,0.013523,0.002678,0.000431,0.010930
11755000,0.0324,0.013523,0.002678,0.000431,0.009990
11756000,0.0324,0.013523,0.002678,0.000431,0.010107
11757000,0.0324,0.013523,0.002678,0.000431,0.010813
11758000,0.0324,0.013523,0.002678,0.000431,0.010225
11759000,0.0324,0.013523,0.002678,0.000431,0.010342
11760000,0.0324,0.013523,0.002678,0.000431,0.010460
11761000,0.0324,0.013523,0.002678,0.000431,0.010225
11762000,0.0324,0.013523,0.002678,0.000431,0.010578
11763000,0.0324,0.013523,0.002678,0.000431,0.010578
11764000,0.0324,0.013523,0.002678,0.000431,0.010930
11765000,0.0324,0.013523,0.002678,0.000431,0.010107
11766000,0.0324,0.013523,0.002678,0.000431,0.010107
11767000,0.0324,0.013523,0.002678,0.000431,0.010930
11768000,0.0324,0.013523,0.002678,0.000431,0.009755
11769000,0.0324,0.013523,0.002678,0.000431,0.010578
11770000,0.0324,0.013523,0.002678,0.000431,0.011048
11771000,0.0324,0.013523,0.002678,0.000431,0.009872
11772000,0.0324,0.013523,0.002678,0.000431,0.009755
11773000,0.0324,0.013523,0.002678,0.000431,0.010225
11774000,0.0324,0.013523,0.002678,0.000431,0.010460
11775000,0.0324,0.013523,0.002678,0.000431,0.009872
11776000,0.0324,0.013523,0.002678,0.000431,0.010460
11777000,0.0324,0.013523,0.002678,0.000431,0.011635
11778000,0.0324,0.013523,0.002678,0.000431,0.009637
11779000,0.0324,0.013523,0.002678,0.000431,0.011048
11780000,0.0324,0.013523,0.002678,0.000431,0.011518
11781000,0.0324,0.013523,0.002678,0.000431,0.009637
11782000,0.0324,0.013523,0.002678,0.000431,0.010578
11783000,0.0324,0.013523,0.002678,0.000431,0.009990
11784000,0.0324,0.013523,0.002678,0.000431,0.011165
11785000,0.0324,0.013523,0.002678,0.000431,0.009990
11786000,0.0324,0.013523,0.002678,0.000431,0.009402
11787000,0.0324,0.013523,0.002678,0.000431,0.011518
11788000,0.0324,0.013523,0.002678,0.000431,0.010225
11789000,0.0324,0.013523,0.002678,0.000431,0.011283
11790000,0.0324,0.013523,0.002678,0.000431,0.010930
11791000,0.0324,0.013523,0.002678,0.000431,0.009520
11792000,0.0324,0.013523,0.002678,0.000431,0.009755
11793000,0.0324,0.013523,0.002678,0.000431,0.009872
11794000,0.0324,0.013523,0.002678,0.000431,0.010225
11795000,0.0324,0.013523,0.002678,0.000431,0.009167
11796000,0.0324,0.013523,0.002678,0.000431,0.009990
11797000,0.0324,0.013523,0.002678,0.000431,0.010695
11798000,0.0324,0.013523,0.002678,0.000431,0.008697
11799000,0.0324,0.013523,0.002678,0.000431,0.010930
11800000,0.0324,0.013523,0.002678,0.000431,0.010342
11801000,0.0324,0.013523,0.002678,0.000431,0.009167
11802000,0.0324,0.013523,0.002678,0.000431,0.009637
11803000,0.0324,0.013523,0.002678,0.000431,0.010460
11804000,0.0324,0.013523,0.002678,0.000431,0.009755
11805000,0.0324,0.013523,0.002678,0.000431,0.010107
11806000,0.0324,0.013523,0.002678,0.000431,0.010225
11807000,0.0324,0.013523,0.002678,0.000431,0.011283
11808000,0.0324,0.013523,0.002678,0.000431,0.010107
11809000,0.0324,0.013523,0.002678,0.000431,0.009872
11810000,0.0324,0.013523,0.002678,0.000431,0.011870
11811000,0.0324,0.013523,0.002678,0.000431,0.009050
11812000,0.0324,0.013523,0.002678,0.000431,0.010930
11813000,0.0324,0.013523,0.002678,0.000431,0.011635
11814000,0.0324,0.013523,0.002678,0.000431,0.009285
11815000,0.0324,0.013523,0.002678,0.000431,0.009755
11816000,0.0324,0.013523,0.002678,0.000431,0.010930
11817000,0.0324,0.013523,0.002678,0.000431,0.010107
11818000,0.0324,0.013523,0.002678,0.000431,0.009872
11819000,0.0324,0.013523,0.002678,0.000431,0.009990
11820000,0.0324,0.013523,0.002678,0.000431,0.011048
11821000,0.0324,0.013523,0.002678,0.000431,0.009520
11822000,0.0324,0.013523,0.002678,0.000431,0.010578
11823000,0.0324,0.013523,0.002678,0.000431,0.010225
11824000,0.0324,0.013523,0.002678,0.000431,0.010930
11825000,0.0324,0.013523,0.002678,0.000431,0.010225
11826000,0.0324,0.013523,0.002678,0.000431,0.011283
11827000,0.0324,0.013523,0.002678,0.000431,0.009637
11828000,0.0324,0.013523,0.002678,0.000431,0.009872
11829000,0.0324,0.013523,0.002678,0.000431,0.010813
11830000,0.0324,0.013523,0.002678,0.000431,0.009285
11831000,0.0324,0.013523,0.002678,0.000431,0.011048
11832000,0.0324,0.013523,0.002678,0.000431,0.009872
11833000,0.0324,0.013523,0.002678,0.000431,0.010695
11834000,0.0324,0.013523,0.002678,0.000431,0.009520
11835000,0.0324,0.013523,0.002678,0.000431,0.009050
11836000,0.0324,0.013523,0.002678,0.000431,0.010578
11837000,0.0324,0.013523,0.002678,0.000431,0.009755
11838000,0.0324,0.013523,0.002678,0.000431,0.009050
11839000,0.0324,0.013523,0.002678,0.000431,0.009990
11840000,0.0324,0.013523,0.002678,0.000431,0.010930
11841000,0.0324,0.013523,0.002678,0.000431,0.010225
11842000,0.0324,0.013523,0.002678,0.000431,0.010225
11843000,0.0324,0.013523,0.002678,0.000431,0.009990
11844000,0.0324,0.013523,0.002678,0.000431,0.010107
11845000,0.0324,0.013523,0.002678,0.000431,0.010695
11846000,0.0324,0.013523,0.002678,0.000431,0.011518
11847000,0.0324,0.013523,0.002678,0.000431,0.009755
11848000,0.0324,0.013523,0.002678,0.000431,0.010225
11849000,0.0324,0.013523,0.002678,0.000431,0.010930
11850000,0.0324,0.013523,0.002678,0.000431,0.010695
11851000,0.0324,0.013523,0.002678,0.000431,0.009285
11852000,0.0324,0.013523,0.002678,0.000431,0.009990
11853000,0.0324,0.013523,0.002678,0.000431,0.009990
11854000,0.0324,0.013523,0.002678,0.000431,0.011165
11855000,0.0324,0.013523,0.002678,0.000431,0.010930
11856000,0.0324,0.013523,0.002678,0.000431,0.010930
11857000,0.0324,0.013523,0.002678,0.000431,0.009285
11858000,0.0324,0.013523,0.002678,0.000431,0.010930
11859000,0.0324,0.013523,0.002678,0.000431,0.011165
11860000,0.0324,0.013523,0.002678,0.000431,0.010107
11861000,0.0324,0.013523,0.002678,0.000431,0.010813
11862000,0.0324,0.013523,0.002678,0.000431,0.010695
11863000,0.0324,0.013523,0.002678,0.000431,0.010225
11864000,0.0324,0.013523,0.002678,0.000431,0.010930
11865000,0.0324,0.013523,0.002678,0.000431,0.010460
11866000,0.0324,0.013523,0.002678,0.000431,0.010107
11867000,0.0324,0.013523,0.002678,0.000431,0.010695
11868000,0.0324,0.013523,0.002678,0.000431,0.009872
11869000,0.0324,0.013523,0.002678,0.000431,0.009990
11870000,0.0324,0.013523,0.002678,0.000431,0.009990
11871000,0.0324,0.013523,0.002678,0.000431,0.009990
11872000,0.0324,0.013523,0.002678,0.000431,0.011165
11873000,0.0324,0.013523,0.002678,0.000431,0.009167
11874000,0.0324,0.013523,0.002678,0.000431,0.010225
11875000,0.0324,0.013523,0.002678,0.000431,0.010460
11876000,0.0324,0.013523,0.002678,0.000431,0.010460
11877000,0.0324,0.013523,0.002678,0.000431,0.010695
11878000,0.0324,0.013523,0.002678,0.000431,0.010813
11879000,0.0324,0.013523,0.002678,0.000431,0.010813
11880000,0.0324,0.013523,0.002678,0.000431,0.010107
11881000,0.0324,0.013523,0.002678,0.000431,0.009990
11882000,0.0324,0.013523,0.002678,0.000431,0.010695
11883000,0.0324,0.013523,0.002678,0.000431,0.009520
11884000,0.0324,0.013523,0.002678,0.000431,0.010930
11885000,0.0324,0.013523,0.002678,0.000431,0.011283
11886000,0.0324,0.013523,0.002678,0.000431,0.009755
11887000,0.0324,0.013523,0.002678,0.000431,0.009872
11888000,0.0324,0.013523,0.002678,0.000431,0.009872
11889000,0.0324,0.013523,0.002678,0.000431,0.011400
11890000,0.0324,0.013523,0.002678,0.000431,0.010107
11891000,0.0324,0.013523,0.002678,0.000431,0.010695
11892000,0.0324,0.013523,0.002678,0.000431,0.011048
11893000,0.0324,0.013523,0.002678,0.000431,0.010107
11894000,0.0324,0.013523,0.002678,0.000431,0.009402
11895000,0.0324,0.013523,0.002678,0.000431,0.010930
11896000,0.0324,0.013523,0.002678,0.000431,0.010578
11897000,0.0324,0.013523,0.002678,0.000431,0.010578
11898000,0.0324,0.013523,0.002678,0.000431,0.010225
11899000,0.0324,0.013523,0.002678,0.000431,0.011048
11900000,0.0324,0.013523,0.002678,0.000431,0.010460
11901000,0.0324,0.013523,0.002678,0.000431,0.010578
11902000,0.0324,0.013523,0.002678,0.000431,0.009990
11903000,0.0324,0.013523,0.002678,0.000431,0.008932
11904000,0.0324,0.013523,0.002678,0.000431,0.011048
11905000,0.0324,0.013523,0.002678,0.000431,0.011283
11906000,0.0324,0.013523,0.002678,0.000431,0.009637
11907000,0.0324,0.013523,0.002678,0.000431,0.010460
11908000,0.0324,0.013523,0.002678,0.000431,0.010813
11909000,0.0324,0.013523,0.002678,0.000431,0.010342
11910000,0.0324,0.013523,0.002678,0.000431,0.009755
11911000,0.0324,0.013523,0.002678,0.000431,0.010460
11912000,0.0324,0.013523,0.002678,0.000431,0.011635
11913000,0.0324,0.013523,0.002678,0.000431,0.009637
11914000,0.0324,0.013523,0.002678,0.000431,0.009872
11915000,0.0324,0.013523,0.002678,0.000431,0.010695
11916000,0.0324,0.013523,0.002678,0.000431,0.009520
11917000,0.0324,0.013523,0.002678,0.000431,0.010930
11918000,0.0324,0.013523,0.002678,0.000431,0.010342
11919000,0.0324,0.013523,0.002678,0.000431,0.010578
11920000,0.0324,0.013523,0.002678,0.000431,0.010107
11921000,0.0324,0.013523,0.002678,0.000431,0.009990
11922000,0.0324,0.013523,0.002678,0.000431,0.011400
11923000,0.0324,0.013523,0.002678,0.000431,0.009402
11924000,0.0324,0.013523,0.002678,0.000431,0.010578
11925000,0.0324,0.013523,0.002678,0.000431,0.010695
11926000,0.0324,0.013523,0.002678,0.000431,0.010930
11927000,0.0324,0.013523,0.002678,0.000431,0.009520
11928000,0.0324,0.013523,0.002678,0.000431,0.010930
11929000,0.0324,0.013523,0.002678,0.000431,0.010225
11930000,0.0324,0.013523,0.002678,0.000431,0.009990
11931000,0.0324,0.013523,0.002678,0.000431,0.010342
11932000,0.0324,0.013523,0.002678,0.000431,0.010578
11933000,0.0324,0.013523,0.002678,0.000431,0.010813
11934000,0.0324,0.013523,0.002678,0.000431,0.009167
11935000,0.0324,0.013523,0.002678,0.000431,0.011165
11936000,0.0324,0.013523,0.002678,0.000431,0.010460
11937000,0.0324,0.013523,0.002678,0.000431,0.010460
11938000,0.0324,0.013523,0.002678,0.000431,0.009990
11939000,0.0324,0.013523,0.002678,0.000431,0.010578
11940000,0.0324,0.013523,0.002678,0.000431,0.010695
11941000,0.0324,0.013523,0.002678,0.000431,0.011283
11942000,0.0324,0.013523,0.002678,0.000431,0.009637
11943000,0.0324,0.013523,0.002678,0.000431,0.010930
11944000,0.0324,0.013523,0.002678,0.000431,0.009520
11945000,0.0324,0.013523,0.002678,0.000431,0.011283
11946000,0.0324,0.013523,0.002678,0.000431,0.009637
11947000,0.0324,0.013523,0.002678,0.000431,0.010695
11948000,0.0324,0.013523,0.002678,0.000431,0.010813
11949000,0.0324,0.013523,0.002678,0.000431,0.009990
11950000,0.0324,0.013523,0.002678,0.000431,0.010813
11951000,0.0324,0.013523,0.002678,0.000431,0.010930
11952000,0.0324,0.013523,0.002678,0.000431,0.010578
11953000,0.0324,0.013523,0.002678,0.000431,0.010225
11954000,0.0324,0.013523,0.002678,0.000431,0.010225
11955000,0.0324,0.013523,0.002678,0.000431,0.010460
11956000,0.0324,0.013523,0.002678,0.000431,0.010813
11957000,0.0324,0.013523,0.002678,0.000431,0.010225
11958000,0.0324,0.013523,0.002678,0.000431,0.009872
11959000,0.0324,0.013523,0.002678,0.000431,0.009755
11960000,0.0324,0.013523,0.002678,0.000431,0.010460
11961000,0.0324,0.013523,0.002678,0.000431,0.009285
11962000,0.0324,0.013523,0.002678,0.000431,0.009872
11963000,0.0324,0.013523,0.002678,0.000431,0.010930
11964000,0.0324,0.013523,0.002678,0.000431,0.010578
11965000,0.0324,0.013523,0.002678,0.000431,0.009872
11966000,0.0324,0.013523,0.002678,0.000431,0.009637
11967000,0.0324,0.013523,0.002678,0.000431,0.010342
11968000,0.0324,0.013523,0.002678,0.000431,0.010930
11969000,0.0324,0.013523,0.002678,0.000431,0.009755
11970000,0.0324,0.013523,0.002678,0.000431,0.010930
11971000,0.0324,0.013523,0.002678,0.000431,0.011635
11972000,0.0324,0.013523,0.002678,0.000431,0.008462
11973000,0.0324,0.013523,0.002678,0.000431,0.010813
11974000,0.0324,0.013523,0.002678,0.000431,0.010813
11975000,0.0324,0.013523,0.002678,0.000431,0.010107
11976000,0.0324,0.013523,0.002678,0.000431,0.010342
11977000,0.0324,0.013523,0.002678,0.000431,0.011165
11978000,0.0324,0.013523,0.002678,0.000431,0.010930
11979000,0.0324,0.013523,0.002678,0.000431,0.009755
11980000,0.0324,0.013523,0.002678,0.000431,0.010107
11981000,0.0324,0.013523,0.002678,0.000431,0.011165
11982000,0.0324,0.013523,0.002678,0.000431,0.010107
11983000,0.0324,0.013523,0.002678,0.000431,0.009872
11984000,0.0324,0.013523,0.002678,0.000431,0.010225
11985000,0.0324,0.013523,0.002678,0.000431,0.009872
11986000,0.0324,0.013523,0.002678,0.000431,0.009167
11987000,0.0324,0.013523,0.002678,0.000431,0.010225
11988000,0.0324,0.013523,0.002678,0.000431,0.009872
11989000,0.0324,0.013523,0.002678,0.000431,0.009520
11990000,0.0324,0.013523,0.002678,0.000431,0.009637
11991000,0.0324,0.013523,0.002678,0.000431,0.009872
11992000,0.0324,0.013523,0.002678,0.000431,0.008932
11993000,0.0324,0.013523,0.002678,0.000431,0.009520
11994000,0.0324,0.013523,0.002678,0.000431,0.010107
11995000,0.0324,0.013523,0.002678,0.000431,0.008932
11996000,0.0324,0.013523,0.002678,0.000431,0.009637
11997000,0.0324,0.013523,0.002678,0.000431,0.010813
11998000,0.0324,0.013523,0.002678,0.000431,0.009167
11999000,0.0324,0.013523,0.002678,0.000431,0.009285
