Cycle,Area(mm^2),PeakDynamic(W),SubthresholdLeakage(W),GateLeakage(W),RunTimeDynamic(W)
1000,0.0324,0.013523,0.002678,0.000431,0.000000
2000,0.0324,0.013523,0.002678,0.000431,0.000000
3000,0.0324,0.013523,0.002678,0.000431,0.000000
4000,0.0324,0.013523,0.002678,0.000431,0.000000
5000,0.0324,0.013523,0.002678,0.000431,0.000000
6000,0.0324,0.013523,0.002678,0.000431,1.711445
7000,0.0324,0.013523,0.002678,0.000431,1.410456
8000,0.0324,0.013523,0.002678,0.000431,2.356558
9000,0.0324,0.013523,0.002678,0.000431,1.471923
10000,0.0324,0.013523,0.002678,0.000431,1.276121
11000,0.0324,0.013523,0.002678,0.000431,1.422914
12000,0.0324,0.013523,0.002678,0.000431,1.153304
13000,0.0324,0.013523,0.002678,0.000431,0.810239
14000,0.0324,0.013523,0.002678,0.000431,0.615848
15000,0.0324,0.013523,0.002678,0.000431,0.472698
16000,0.0324,0.013523,0.002678,0.000431,0.431211
17000,0.0324,0.013523,0.002678,0.000431,0.403827
18000,0.0324,0.013523,0.002678,0.000431,0.345650
19000,0.0324,0.013523,0.002678,0.000431,0.330372
20000,0.0324,0.013523,0.002678,0.000431,0.367863
21000,0.0324,0.013523,0.002678,0.000431,0.344945
22000,0.0324,0.013523,0.002678,0.000431,0.413699
23000,0.0324,0.013523,0.002678,0.000431,0.462591
24000,0.0324,0.013523,0.002678,0.000431,0.392662
25000,0.0324,0.013523,0.002678,0.000431,0.422044
26000,0.0324,0.013523,0.002678,0.000431,0.349059
27000,0.0324,0.013523,0.002678,0.000431,0.359284
28000,0.0324,0.013523,0.002678,0.000431,0.399713
29000,0.0324,0.013523,0.002678,0.000431,0.349529
30000,0.0324,0.013523,0.002678,0.000431,0.344828
31000,0.0324,0.013523,0.002678,0.000431,0.290530
32000,0.0324,0.013523,0.002678,0.000431,0.287709
33000,0.0324,0.013523,0.002678,0.000431,0.365043
34000,0.0324,0.013523,0.002678,0.000431,0.382437
35000,0.0324,0.013523,0.002678,0.000431,0.372682
36000,0.0324,0.013523,0.002678,0.000431,0.341184
37000,0.0324,0.013523,0.002678,0.000431,0.287827
38000,0.0324,0.013523,0.002678,0.000431,0.312978
39000,0.0324,0.013523,0.002678,0.000431,0.342360
40000,0.0324,0.013523,0.002678,0.000431,0.308747
41000,0.0324,0.013523,0.002678,0.000431,0.315446
42000,0.0324,0.013523,0.002678,0.000431,0.285123
43000,0.0324,0.013523,0.002678,0.000431,0.253861
44000,0.0324,0.013523,0.002678,0.000431,0.233764
45000,0.0324,0.013523,0.002678,0.000431,0.244341
46000,0.0324,0.013523,0.002678,0.000431,0.281715
47000,0.0324,0.013523,0.002678,0.000431,0.304868
48000,0.0324,0.013523,0.002678,0.000431,0.234704
49000,0.0324,0.013523,0.002678,0.000431,0.276191
50000,0.0324,0.013523,0.002678,0.000431,0.246222
51000,0.0324,0.013523,0.002678,0.000431,0.240463
52000,0.0324,0.013523,0.002678,0.000431,0.234586
53000,0.0324,0.013523,0.002678,0.000431,0.224714
54000,0.0324,0.013523,0.002678,0.000431,0.283948
55000,0.0324,0.013523,0.002678,0.000431,0.308041
56000,0.0324,0.013523,0.002678,0.000431,0.280070
57000,0.0324,0.013523,0.002678,0.000431,0.361634
58000,0.0324,0.013523,0.002678,0.000431,0.301812
59000,0.0324,0.013523,0.002678,0.000431,0.253861
60000,0.0324,0.013523,0.002678,0.000431,0.258797
61000,0.0324,0.013523,0.002678,0.000431,0.364455
62000,0.0324,0.013523,0.002678,0.000431,0.297581
63000,0.0324,0.013523,0.002678,0.000431,0.331900
64000,0.0324,0.013523,0.002678,0.000431,0.317444
65000,0.0324,0.013523,0.002678,0.000431,0.336601
66000,0.0324,0.013523,0.002678,0.000431,0.430506
67000,0.0324,0.013523,0.002678,0.000431,0.375738
68000,0.0324,0.013523,0.002678,0.000431,0.374562
69000,0.0324,0.013523,0.002678,0.000431,0.362222
70000,0.0324,0.013523,0.002678,0.000431,0.311215
71000,0.0324,0.013523,0.002678,0.000431,0.298757
72000,0.0324,0.013523,0.002678,0.000431,0.347296
73000,0.0324,0.013523,0.002678,0.000431,0.324848
74000,0.0324,0.013523,0.002678,0.000431,0.280775
75000,0.0324,0.013523,0.002678,0.000431,0.326023
76000,0.0324,0.013523,0.002678,0.000431,0.311215
77000,0.0324,0.013523,0.002678,0.000431,0.271490
78000,0.0324,0.013523,0.002678,0.000431,0.293115
79000,0.0324,0.013523,0.002678,0.000431,0.264203
80000,0.0324,0.013523,0.002678,0.000431,0.214724
81000,0.0324,0.013523,0.002678,0.000431,0.199798
82000,0.0324,0.013523,0.002678,0.000431,0.215429
83000,0.0324,0.013523,0.002678,0.000431,0.220130
84000,0.0324,0.013523,0.002678,0.000431,0.215547
85000,0.0324,0.013523,0.002678,0.000431,0.230355
86000,0.0324,0.013523,0.002678,0.000431,0.285006
87000,0.0324,0.013523,0.002678,0.000431,0.307689
88000,0.0324,0.013523,0.002678,0.000431,0.298522
89000,0.0324,0.013523,0.002678,0.000431,0.302282
90000,0.0324,0.013523,0.002678,0.000431,0.301577
91000,0.0324,0.013523,0.002678,0.000431,0.235644
92000,0.0324,0.013523,0.002678,0.000431,0.235997
93000,0.0324,0.013523,0.002678,0.000431,0.226477
94000,0.0324,0.013523,0.002678,0.000431,0.199210
95000,0.0324,0.013523,0.002678,0.000431,0.195802
96000,0.0324,0.013523,0.002678,0.000431,0.201796
97000,0.0324,0.013523,0.002678,0.000431,0.209200
98000,0.0324,0.013523,0.002678,0.000431,0.216134
99000,0.0324,0.013523,0.002678,0.000431,0.256799
100000,0.0324,0.013523,0.002678,0.000431,0.209200
101000,0.0324,0.013523,0.002678,0.000431,0.236937
102000,0.0324,0.013523,0.002678,0.000431,0.369391
103000,0.0324,0.013523,0.002678,0.000431,0.322497
104000,0.0324,0.013523,0.002678,0.000431,0.322497
105000,0.0324,0.013523,0.002678,0.000431,0.284418
106000,0.0324,0.013523,0.002678,0.000431,0.239875
107000,0.0324,0.013523,0.002678,0.000431,0.255036
108000,0.0324,0.013523,0.002678,0.000431,0.324965
109000,0.0324,0.013523,0.002678,0.000431,0.365160
110000,0.0324,0.013523,0.002678,0.000431,0.315798
111000,0.0324,0.013523,0.002678,0.000431,0.266554
112000,0.0324,0.013523,0.002678,0.000431,0.271608
113000,0.0324,0.013523,0.002678,0.000431,0.274193
114000,0.0324,0.013523,0.002678,0.000431,0.334603
115000,0.0324,0.013523,0.002678,0.000431,0.345885
116000,0.0324,0.013523,0.002678,0.000431,0.283948
117000,0.0324,0.013523,0.002678,0.000431,0.272900
118000,0.0324,0.013523,0.002678,0.000431,0.346238
119000,0.0324,0.013523,0.002678,0.000431,0.395600
120000,0.0324,0.013523,0.002678,0.000431,0.432621
121000,0.0324,0.013523,0.002678,0.000431,0.363280
122000,0.0324,0.013523,0.002678,0.000431,0.302988
123000,0.0324,0.013523,0.002678,0.000431,0.324848
124000,0.0324,0.013523,0.002678,0.000431,0.355875
125000,0.0324,0.013523,0.002678,0.000431,0.394895
126000,0.0324,0.013523,0.002678,0.000431,0.346591
127000,0.0324,0.013523,0.002678,0.000431,0.327904
128000,0.0324,0.013523,0.002678,0.000431,0.402181
129000,0.0324,0.013523,0.002678,0.000431,0.302400
130000,0.0324,0.013523,0.002678,0.000431,0.339069
131000,0.0324,0.013523,0.002678,0.000431,0.338129
132000,0.0324,0.013523,0.002678,0.000431,0.301812
133000,0.0324,0.013523,0.002678,0.000431,0.454364
134000,0.0324,0.013523,0.002678,0.000431,0.471758
135000,0.0324,0.013523,0.002678,0.000431,0.370566
136000,0.0324,0.013523,0.002678,0.000431,0.319794
137000,0.0324,0.013523,0.002678,0.000431,0.311567
138000,0.0324,0.013523,0.002678,0.000431,0.340362
139000,0.0324,0.013523,0.002678,0.000431,0.366335
140000,0.0324,0.013523,0.002678,0.000431,0.355170
141000,0.0324,0.013523,0.002678,0.000431,0.377030
142000,0.0324,0.013523,0.002678,0.000431,0.416167
143000,0.0324,0.013523,0.002678,0.000431,0.456127
144000,0.0324,0.013523,0.002678,0.000431,0.355640
145000,0.0324,0.013523,0.002678,0.000431,0.268787
146000,0.0324,0.013523,0.002678,0.000431,0.319207
147000,0.0324,0.013523,0.002678,0.000431,0.371507
148000,0.0324,0.013523,0.002678,0.000431,0.340832
149000,0.0324,0.013523,0.002678,0.000431,0.311685
150000,0.0324,0.013523,0.002678,0.000431,0.393014
151000,0.0324,0.013523,0.002678,0.000431,0.431916
152000,0.0324,0.013523,0.002678,0.000431,0.380674
153000,0.0324,0.013523,0.002678,0.000431,0.353642
154000,0.0324,0.013523,0.002678,0.000431,0.362927
155000,0.0324,0.013523,0.002678,0.000431,0.397363
156000,0.0324,0.013523,0.002678,0.000431,0.473286
157000,0.0324,0.013523,0.002678,0.000431,0.484334
158000,0.0324,0.013523,0.002678,0.000431,0.404532
159000,0.0324,0.013523,0.002678,0.000431,0.482571
160000,0.0324,0.013523,0.002678,0.000431,0.483276
161000,0.0324,0.013523,0.002678,0.000431,0.424982
162000,0.0324,0.013523,0.002678,0.000431,0.375267
163000,0.0324,0.013523,0.002678,0.000431,0.371036
164000,0.0324,0.013523,0.002678,0.000431,0.402416
165000,0.0324,0.013523,0.002678,0.000431,0.461063
166000,0.0324,0.013523,0.002678,0.000431,0.383024
167000,0.0324,0.013523,0.002678,0.000431,0.452248
168000,0.0324,0.013523,0.002678,0.000431,0.455657
169000,0.0324,0.013523,0.002678,0.000431,0.466704
170000,0.0324,0.013523,0.002678,0.000431,0.536516
171000,0.0324,0.013523,0.002678,0.000431,0.544273
172000,0.0324,0.013523,0.002678,0.000431,0.472816
173000,0.0324,0.013523,0.002678,0.000431,0.397833
174000,0.0324,0.013523,0.002678,0.000431,0.493736
175000,0.0324,0.013523,0.002678,0.000431,0.522883
176000,0.0324,0.013523,0.002678,0.000431,0.479280
177000,0.0324,0.013523,0.002678,0.000431,0.484804
178000,0.0324,0.013523,0.002678,0.000431,0.480220
179000,0.0324,0.013523,0.002678,0.000431,0.502198
180000,0.0324,0.013523,0.002678,0.000431,0.635122
181000,0.0324,0.013523,0.002678,0.000431,0.552500
182000,0.0324,0.013523,0.002678,0.000431,0.618316
183000,0.0324,0.013523,0.002678,0.000431,0.612087
184000,0.0324,0.013523,0.002678,0.000431,0.576241
185000,0.0324,0.013523,0.002678,0.000431,0.620901
186000,0.0324,0.013523,0.002678,0.000431,0.711163
187000,0.0324,0.013523,0.002678,0.000431,0.665327
188000,0.0324,0.013523,0.002678,0.000431,0.583645
189000,0.0324,0.013523,0.002678,0.000431,0.643819
190000,0.0324,0.013523,0.002678,0.000431,0.590814
191000,0.0324,0.013523,0.002678,0.000431,0.562607
192000,0.0324,0.013523,0.002678,0.000431,0.509132
193000,0.0324,0.013523,0.002678,0.000431,0.601157
194000,0.0324,0.013523,0.002678,0.000431,0.510307
195000,0.0324,0.013523,0.002678,0.000431,0.687657
196000,0.0324,0.013523,0.002678,0.000431,0.531933
197000,0.0324,0.013523,0.002678,0.000431,0.728440
198000,0.0324,0.013523,0.002678,0.000431,0.589169
199000,0.0324,0.013523,0.002678,0.000431,0.538279
200000,0.0324,0.013523,0.002678,0.000431,0.623017
201000,0.0324,0.013523,0.002678,0.000431,0.643232
202000,0.0324,0.013523,0.002678,0.000431,0.605388
203000,0.0324,0.013523,0.002678,0.000431,0.726207
204000,0.0324,0.013523,0.002678,0.000431,0.699763
205000,0.0324,0.013523,0.002678,0.000431,0.594693
206000,0.0324,0.013523,0.002678,0.000431,0.741955
207000,0.0324,0.013523,0.002678,0.000431,0.662154
208000,0.0324,0.013523,0.002678,0.000431,0.753121
209000,0.0324,0.013523,0.002678,0.000431,0.849611
210000,0.0324,0.013523,0.002678,0.000431,0.662271
211000,0.0324,0.013523,0.002678,0.000431,0.799427
212000,0.0324,0.013523,0.002678,0.000431,0.800249
213000,0.0324,0.013523,0.002678,0.000431,0.832922
214000,0.0324,0.013523,0.002678,0.000431,0.759232
215000,0.0324,0.013523,0.002678,0.000431,0.942694
216000,0.0324,0.013523,0.002678,0.000431,0.867476
217000,0.0324,0.013523,0.002678,0.000431,0.915545
218000,0.0324,0.013523,0.002678,0.000431,0.878053
219000,0.0324,0.013523,0.002678,0.000431,0.900501
220000,0.0324,0.013523,0.002678,0.000431,0.969725
221000,0.0324,0.013523,0.002678,0.000431,1.033073
222000,0.0324,0.013523,0.002678,0.000431,0.960440
223000,0.0324,0.013523,0.002678,0.000431,1.079731
224000,0.0324,0.013523,0.002678,0.000431,1.058341
225000,0.0324,0.013523,0.002678,0.000431,1.121101
226000,0.0324,0.013523,0.002678,0.000431,0.985239
227000,0.0324,0.013523,0.002678,0.000431,1.158240
228000,0.0324,0.013523,0.002678,0.000431,1.168935
229000,0.0324,0.013523,0.002678,0.000431,0.754413
230000,0.0324,0.013523,0.002678,0.000431,0.106716
231000,0.0324,0.013523,0.002678,0.000431,0.039960
232000,0.0324,0.013523,0.002678,0.000431,0.033613
233000,0.0324,0.013523,0.002678,0.000431,0.029852
234000,0.0324,0.013523,0.002678,0.000431,0.029617
235000,0.0324,0.013523,0.002678,0.000431,0.029382
236000,0.0324,0.013523,0.002678,0.000431,0.029382
237000,0.0324,0.013523,0.002678,0.000431,0.029265
238000,0.0324,0.013523,0.002678,0.000431,0.026796
239000,0.0324,0.013523,0.002678,0.000431,0.027502
240000,0.0324,0.013523,0.002678,0.000431,0.027149
241000,0.0324,0.013523,0.002678,0.000431,0.025739
242000,0.0324,0.013523,0.002678,0.000431,0.025739
243000,0.0324,0.013523,0.002678,0.000431,0.027384
244000,0.0324,0.013523,0.002678,0.000431,0.026326
245000,0.0324,0.013523,0.002678,0.000431,0.026679
246000,0.0324,0.013523,0.002678,0.000431,0.026796
247000,0.0324,0.013523,0.002678,0.000431,0.024446
248000,0.0324,0.013523,0.002678,0.000431,0.024798
249000,0.0324,0.013523,0.002678,0.000431,0.027031
250000,0.0324,0.013523,0.002678,0.000431,0.023153
251000,0.0324,0.013523,0.002678,0.000431,0.023506
252000,0.0324,0.013523,0.002678,0.000431,0.023858
253000,0.0324,0.013523,0.002678,0.000431,0.024211
254000,0.0324,0.013523,0.002678,0.000431,0.023271
255000,0.0324,0.013523,0.002678,0.000431,0.022683
256000,0.0324,0.013523,0.002678,0.000431,0.023623
257000,0.0324,0.013523,0.002678,0.000431,0.021860
258000,0.0324,0.013523,0.002678,0.000431,0.020567
259000,0.0324,0.013523,0.002678,0.000431,0.022448
260000,0.0324,0.013523,0.002678,0.000431,0.019275
261000,0.0324,0.013523,0.002678,0.000431,0.020920
262000,0.0324,0.013523,0.002678,0.000431,0.020920
263000,0.0324,0.013523,0.002678,0.000431,0.019275
264000,0.0324,0.013523,0.002678,0.000431,0.019275
265000,0.0324,0.013523,0.002678,0.000431,0.021508
266000,0.0324,0.013523,0.002678,0.000431,0.019627
267000,0.0324,0.013523,0.002678,0.000431,0.018922
268000,0.0324,0.013523,0.002678,0.000431,0.019862
269000,0.0324,0.013523,0.002678,0.000431,0.019745
270000,0.0324,0.013523,0.002678,0.000431,0.019040
271000,0.0324,0.013523,0.002678,0.000431,0.020450
272000,0.0324,0.013523,0.002678,0.000431,0.019980
273000,0.0324,0.013523,0.002678,0.000431,0.017982
274000,0.0324,0.013523,0.002678,0.000431,0.017512
275000,0.0324,0.013523,0.002678,0.000431,0.018452
276000,0.0324,0.013523,0.002678,0.000431,0.017277
277000,0.0324,0.013523,0.002678,0.000431,0.017159
278000,0.0324,0.013523,0.002678,0.000431,0.018452
279000,0.0324,0.013523,0.002678,0.000431,0.018099
280000,0.0324,0.013523,0.002678,0.000431,0.017277
281000,0.0324,0.013523,0.002678,0.000431,0.018334
282000,0.0324,0.013523,0.002678,0.000431,0.018452
283000,0.0324,0.013523,0.002678,0.000431,0.017864
284000,0.0324,0.013523,0.002678,0.000431,0.017982
285000,0.0324,0.013523,0.002678,0.000431,0.016336
286000,0.0324,0.013523,0.002678,0.000431,0.016571
287000,0.0324,0.013523,0.002678,0.000431,0.017277
288000,0.0324,0.013523,0.002678,0.000431,0.016219
289000,0.0324,0.013523,0.002678,0.000431,0.016454
290000,0.0324,0.013523,0.002678,0.000431,0.014926
291000,0.0324,0.013523,0.002678,0.000431,0.016454
292000,0.0324,0.013523,0.002678,0.000431,0.014103
293000,0.0324,0.013523,0.002678,0.000431,0.014456
294000,0.0324,0.013523,0.002678,0.000431,0.015514
295000,0.0324,0.013523,0.002678,0.000431,0.015044
296000,0.0324,0.013523,0.002678,0.000431,0.014573
297000,0.0324,0.013523,0.002678,0.000431,0.014809
298000,0.0324,0.013523,0.002678,0.000431,0.015514
299000,0.0324,0.013523,0.002678,0.000431,0.015044
300000,0.0324,0.013523,0.002678,0.000431,0.014338
301000,0.0324,0.013523,0.002678,0.000431,0.016101
302000,0.0324,0.013523,0.002678,0.000431,0.014221
303000,0.0324,0.013523,0.002678,0.000431,0.014221
304000,0.0324,0.013523,0.002678,0.000431,0.015514
305000,0.0324,0.013523,0.002678,0.000431,0.014103
306000,0.0324,0.013523,0.002678,0.000431,0.013868
307000,0.0324,0.013523,0.002678,0.000431,0.014103
308000,0.0324,0.013523,0.002678,0.000431,0.014573
309000,0.0324,0.013523,0.002678,0.000431,0.013046
310000,0.0324,0.013523,0.002678,0.000431,0.013281
311000,0.0324,0.013523,0.002678,0.000431,0.013398
312000,0.0324,0.013523,0.002678,0.000431,0.013398
313000,0.0324,0.013523,0.002678,0.000431,0.014456
314000,0.0324,0.013523,0.002678,0.000431,0.013633
315000,0.0324,0.013523,0.002678,0.000431,0.013751
316000,0.0324,0.013523,0.002678,0.000431,0.012811
317000,0.0324,0.013523,0.002678,0.000431,0.013281
318000,0.0324,0.013523,0.002678,0.000431,0.015279
319000,0.0324,0.013523,0.002678,0.000431,0.013281
320000,0.0324,0.013523,0.002678,0.000431,0.012811
321000,0.0324,0.013523,0.002678,0.000431,0.013163
322000,0.0324,0.013523,0.002678,0.000431,0.014338
323000,0.0324,0.013523,0.002678,0.000431,0.013046
324000,0.0324,0.013523,0.002678,0.000431,0.013163
325000,0.0324,0.013523,0.002678,0.000431,0.013046
326000,0.0324,0.013523,0.002678,0.000431,0.011635
327000,0.0324,0.013523,0.002678,0.000431,0.012811
328000,0.0324,0.013523,0.002678,0.000431,0.011635
329000,0.0324,0.013523,0.002678,0.000431,0.012223
330000,0.0324,0.013523,0.002678,0.000431,0.012693
331000,0.0324,0.013523,0.002678,0.000431,0.012223
332000,0.0324,0.013523,0.002678,0.000431,0.011753
333000,0.0324,0.013523,0.002678,0.000431,0.012340
334000,0.0324,0.013523,0.002678,0.000431,0.012340
335000,0.0324,0.013523,0.002678,0.000431,0.011165
336000,0.0324,0.013523,0.002678,0.000431,0.012928
337000,0.0324,0.013523,0.002678,0.000431,0.011635
338000,0.0324,0.013523,0.002678,0.000431,0.011400
339000,0.0324,0.013523,0.002678,0.000431,0.012458
340000,0.0324,0.013523,0.002678,0.000431,0.011635
341000,0.0324,0.013523,0.002678,0.000431,0.011870
342000,0.0324,0.013523,0.002678,0.000431,0.010930
343000,0.0324,0.013523,0.002678,0.000431,0.010342
344000,0.0324,0.013523,0.002678,0.000431,0.012458
345000,0.0324,0.013523,0.002678,0.000431,0.010460
346000,0.0324,0.013523,0.002678,0.000431,0.011400
347000,0.0324,0.013523,0.002678,0.000431,0.010813
348000,0.0324,0.013523,0.002678,0.000431,0.012105
349000,0.0324,0.013523,0.002678,0.000431,0.010813
350000,0.0324,0.013523,0.002678,0.000431,0.011048
351000,0.0324,0.013523,0.002678,0.000431,0.010930
352000,0.0324,0.013523,0.002678,0.000431,0.010930
353000,0.0324,0.013523,0.002678,0.000431,0.011165
354000,0.0324,0.013523,0.002678,0.000431,0.010460
355000,0.0324,0.013523,0.002678,0.000431,0.011048
356000,0.0324,0.013523,0.002678,0.000431,0.010578
357000,0.0324,0.013523,0.002678,0.000431,0.010813
358000,0.0324,0.013523,0.002678,0.000431,0.010695
359000,0.0324,0.013523,0.002678,0.000431,0.011635
360000,0.0324,0.013523,0.002678,0.000431,0.010460
361000,0.0324,0.013523,0.002678,0.000431,0.010460
362000,0.0324,0.013523,0.002678,0.000431,0.011870
363000,0.0324,0.013523,0.002678,0.000431,0.009520
364000,0.0324,0.013523,0.002678,0.000431,0.009520
365000,0.0324,0.013523,0.002678,0.000431,0.010578
366000,0.0324,0.013523,0.002678,0.000431,0.009637
367000,0.0324,0.013523,0.002678,0.000431,0.010695
368000,0.0324,0.013523,0.002678,0.000431,0.009990
369000,0.0324,0.013523,0.002678,0.000431,0.011400
370000,0.0324,0.013523,0.002678,0.000431,0.008932
371000,0.0324,0.013523,0.002678,0.000431,0.008697
372000,0.0324,0.013523,0.002678,0.000431,0.009402
373000,0.0324,0.013523,0.002678,0.000431,0.009637
374000,0.0324,0.013523,0.002678,0.000431,0.009285
375000,0.0324,0.013523,0.002678,0.000431,0.008227
376000,0.0324,0.013523,0.002678,0.000431,0.008580
377000,0.0324,0.013523,0.002678,0.000431,0.009285
378000,0.0324,0.013523,0.002678,0.000431,0.008227
379000,0.0324,0.013523,0.002678,0.000431,0.009520
380000,0.0324,0.013523,0.002678,0.000431,0.010342
381000,0.0324,0.013523,0.002678,0.000431,0.007522
382000,0.0324,0.013523,0.002678,0.000431,0.008345
383000,0.0324,0.013523,0.002678,0.000431,0.008109
384000,0.0324,0.013523,0.002678,0.000431,0.007992
385000,0.0324,0.013523,0.002678,0.000431,0.007287
386000,0.0324,0.013523,0.002678,0.000431,0.008462
387000,0.0324,0.013523,0.002678,0.000431,0.007757
388000,0.0324,0.013523,0.002678,0.000431,0.009050
389000,0.0324,0.013523,0.002678,0.000431,0.007169
390000,0.0324,0.013523,0.002678,0.000431,0.008815
391000,0.0324,0.013523,0.002678,0.000431,0.006347
392000,0.0324,0.013523,0.002678,0.000431,0.006934
393000,0.0324,0.013523,0.002678,0.000431,0.007052
394000,0.0324,0.013523,0.002678,0.000431,0.006699
395000,0.0324,0.013523,0.002678,0.000431,0.006699
396000,0.0324,0.013523,0.002678,0.000431,0.007639
397000,0.0324,0.013523,0.002678,0.000431,0.006582
398000,0.0324,0.013523,0.002678,0.000431,0.006582
399000,0.0324,0.013523,0.002678,0.000431,0.007404
400000,0.0324,0.013523,0.002678,0.000431,0.006699
401000,0.0324,0.013523,0.002678,0.000431,0.007522
402000,0.0324,0.013523,0.002678,0.000431,0.007287
403000,0.0324,0.013523,0.002678,0.000431,0.006582
404000,0.0324,0.013523,0.002678,0.000431,0.006582
405000,0.0324,0.013523,0.002678,0.000431,0.006934
406000,0.0324,0.013523,0.002678,0.000431,0.007169
407000,0.0324,0.013523,0.002678,0.000431,0.007052
408000,0.0324,0.013523,0.002678,0.000431,0.006699
409000,0.0324,0.013523,0.002678,0.000431,0.007052
410000,0.0324,0.013523,0.002678,0.000431,0.006347
411000,0.0324,0.013523,0.002678,0.000431,0.007522
412000,0.0324,0.013523,0.002678,0.000431,0.006464
413000,0.0324,0.013523,0.002678,0.000431,0.005994
414000,0.0324,0.013523,0.002678,0.000431,0.006111
415000,0.0324,0.013523,0.002678,0.000431,0.006699
416000,0.0324,0.013523,0.002678,0.000431,0.006347
417000,0.0324,0.013523,0.002678,0.000431,0.005171
418000,0.0324,0.013523,0.002678,0.000431,0.005641
419000,0.0324,0.013523,0.002678,0.000431,0.005171
420000,0.0324,0.013523,0.002678,0.000431,0.005289
421000,0.0324,0.013523,0.002678,0.000431,0.005524
422000,0.0324,0.013523,0.002678,0.000431,0.006229
423000,0.0324,0.013523,0.002678,0.000431,0.004231
424000,0.0324,0.013523,0.002678,0.000431,0.004701
425000,0.0324,0.013523,0.002678,0.000431,0.005289
426000,0.0324,0.013523,0.002678,0.000431,0.004701
427000,0.0324,0.013523,0.002678,0.000431,0.004584
428000,0.0324,0.013523,0.002678,0.000431,0.005054
429000,0.0324,0.013523,0.002678,0.000431,0.004701
430000,0.0324,0.013523,0.002678,0.000431,0.004349
431000,0.0324,0.013523,0.002678,0.000431,0.004819
432000,0.0324,0.013523,0.002678,0.000431,0.004701
433000,0.0324,0.013523,0.002678,0.000431,0.004584
434000,0.0324,0.013523,0.002678,0.000431,0.004466
435000,0.0324,0.013523,0.002678,0.000431,0.004936
436000,0.0324,0.013523,0.002678,0.000431,0.004584
437000,0.0324,0.013523,0.002678,0.000431,0.004466
438000,0.0324,0.013523,0.002678,0.000431,0.005171
439000,0.0324,0.013523,0.002678,0.000431,0.004819
440000,0.0324,0.013523,0.002678,0.000431,0.004349
441000,0.0324,0.013523,0.002678,0.000431,0.004936
442000,0.0324,0.013523,0.002678,0.000431,0.005171
443000,0.0324,0.013523,0.002678,0.000431,0.004701
444000,0.0324,0.013523,0.002678,0.000431,0.004701
445000,0.0324,0.013523,0.002678,0.000431,0.004819
446000,0.0324,0.013523,0.002678,0.000431,0.004936
447000,0.0324,0.013523,0.002678,0.000431,0.004584
448000,0.0324,0.013523,0.002678,0.000431,0.004819
449000,0.0324,0.013523,0.002678,0.000431,0.004936
450000,0.0324,0.013523,0.002678,0.000431,0.005171
451000,0.0324,0.013523,0.002678,0.000431,0.003996
452000,0.0324,0.013523,0.002678,0.000431,0.004231
453000,0.0324,0.013523,0.002678,0.000431,0.004113
454000,0.0324,0.013523,0.002678,0.000431,0.004113
455000,0.0324,0.013523,0.002678,0.000431,0.004349
456000,0.0324,0.013523,0.002678,0.000431,0.004231
457000,0.0324,0.013523,0.002678,0.000431,0.003291
458000,0.0324,0.013523,0.002678,0.000431,0.003761
459000,0.0324,0.013523,0.002678,0.000431,0.004113
460000,0.0324,0.013523,0.002678,0.000431,0.003291
461000,0.0324,0.013523,0.002678,0.000431,0.003761
462000,0.0324,0.013523,0.002678,0.000431,0.003878
463000,0.0324,0.013523,0.002678,0.000431,0.003643
464000,0.0324,0.013523,0.002678,0.000431,0.003878
465000,0.0324,0.013523,0.002678,0.000431,0.004113
466000,0.0324,0.013523,0.002678,0.000431,0.003408
467000,0.0324,0.013523,0.002678,0.000431,0.003643
468000,0.0324,0.013523,0.002678,0.000431,0.003996
469000,0.0324,0.013523,0.002678,0.000431,0.003643
470000,0.0324,0.013523,0.002678,0.000431,0.003761
471000,0.0324,0.013523,0.002678,0.000431,0.003761
472000,0.0324,0.013523,0.002678,0.000431,0.003878
473000,0.0324,0.013523,0.002678,0.000431,0.003526
474000,0.0324,0.013523,0.002678,0.000431,0.003996
475000,0.0324,0.013523,0.002678,0.000431,0.003761
476000,0.0324,0.013523,0.002678,0.000431,0.003291
477000,0.0324,0.013523,0.002678,0.000431,0.004113
478000,0.0324,0.013523,0.002678,0.000431,0.003761
479000,0.0324,0.013523,0.002678,0.000431,0.003761
480000,0.0324,0.013523,0.002678,0.000431,0.003643
481000,0.0324,0.013523,0.002678,0.000431,0.003996
482000,0.0324,0.013523,0.002678,0.000431,0.003526
483000,0.0324,0.013523,0.002678,0.000431,0.003761
484000,0.0324,0.013523,0.002678,0.000431,0.003291
485000,0.0324,0.013523,0.002678,0.000431,0.003878
486000,0.0324,0.013523,0.002678,0.000431,0.003526
487000,0.0324,0.013523,0.002678,0.000431,0.003996
488000,0.0324,0.013523,0.002678,0.000431,0.003878
489000,0.0324,0.013523,0.002678,0.000431,0.003996
490000,0.0324,0.013523,0.002678,0.000431,0.003643
491000,0.0324,0.013523,0.002678,0.000431,0.003643
492000,0.0324,0.013523,0.002678,0.000431,0.004231
493000,0.0324,0.013523,0.002678,0.000431,0.003878
494000,0.0324,0.013523,0.002678,0.000431,0.003526
495000,0.0324,0.013523,0.002678,0.000431,0.004113
496000,0.0324,0.013523,0.002678,0.000431,0.003996
497000,0.0324,0.013523,0.002678,0.000431,0.003173
498000,0.0324,0.013523,0.002678,0.000431,0.004349
499000,0.0324,0.013523,0.002678,0.000431,0.003526
500000,0.0324,0.013523,0.002678,0.000431,0.003878
501000,0.0324,0.013523,0.002678,0.000431,0.003291
502000,0.0324,0.013523,0.002678,0.000431,0.004231
503000,0.0324,0.013523,0.002678,0.000431,0.003643
504000,0.0324,0.013523,0.002678,0.000431,0.004113
505000,0.0324,0.013523,0.002678,0.000431,0.003761
506000,0.0324,0.013523,0.002678,0.000431,0.004349
507000,0.0324,0.013523,0.002678,0.000431,0.003526
508000,0.0324,0.013523,0.002678,0.000431,0.003408
509000,0.0324,0.013523,0.002678,0.000431,0.003408
510000,0.0324,0.013523,0.002678,0.000431,0.003878
511000,0.0324,0.013523,0.002678,0.000431,0.003291
512000,0.0324,0.013523,0.002678,0.000431,0.003526
513000,0.0324,0.013523,0.002678,0.000431,0.003761
514000,0.0324,0.013523,0.002678,0.000431,0.003173
515000,0.0324,0.013523,0.002678,0.000431,0.003173
516000,0.0324,0.013523,0.002678,0.000431,0.003761
517000,0.0324,0.013523,0.002678,0.000431,0.003878
518000,0.0324,0.013523,0.002678,0.000431,0.002821
519000,0.0324,0.013523,0.002678,0.000431,0.003878
520000,0.0324,0.013523,0.002678,0.000431,0.003761
521000,0.0324,0.013523,0.002678,0.000431,0.003408
522000,0.0324,0.013523,0.002678,0.000431,0.003056
523000,0.0324,0.013523,0.002678,0.000431,0.003761
524000,0.0324,0.013523,0.002678,0.000431,0.003526
525000,0.0324,0.013523,0.002678,0.000431,0.003173
526000,0.0324,0.013523,0.002678,0.000431,0.003761
527000,0.0324,0.013523,0.002678,0.000431,0.003408
528000,0.0324,0.013523,0.002678,0.000431,0.003291
529000,0.0324,0.013523,0.002678,0.000431,0.003056
530000,0.0324,0.013523,0.002678,0.000431,0.003643
531000,0.0324,0.013523,0.002678,0.000431,0.003526
532000,0.0324,0.013523,0.002678,0.000431,0.002938
533000,0.0324,0.013523,0.002678,0.000431,0.003878
534000,0.0324,0.013523,0.002678,0.000431,0.003408
535000,0.0324,0.013523,0.002678,0.000431,0.003173
536000,0.0324,0.013523,0.002678,0.000431,0.003056
537000,0.0324,0.013523,0.002678,0.000431,0.003761
538000,0.0324,0.013523,0.002678,0.000431,0.003173
539000,0.0324,0.013523,0.002678,0.000431,0.003408
540000,0.0324,0.013523,0.002678,0.000431,0.003526
541000,0.0324,0.013523,0.002678,0.000431,0.003878
542000,0.0324,0.013523,0.002678,0.000431,0.003056
543000,0.0324,0.013523,0.002678,0.000431,0.003526
544000,0.0324,0.013523,0.002678,0.000431,0.003408
545000,0.0324,0.013523,0.002678,0.000431,0.003878
546000,0.0324,0.013523,0.002678,0.000431,0.003408
547000,0.0324,0.013523,0.002678,0.000431,0.003173
548000,0.0324,0.013523,0.002678,0.000431,0.003878
549000,0.0324,0.013523,0.002678,0.000431,0.002938
550000,0.0324,0.013523,0.002678,0.000431,0.003643
551000,0.0324,0.013523,0.002678,0.000431,0.003643
552000,0.0324,0.013523,0.002678,0.000431,0.003408
553000,0.0324,0.013523,0.002678,0.000431,0.003056
554000,0.0324,0.013523,0.002678,0.000431,0.003643
555000,0.0324,0.013523,0.002678,0.000431,0.003173
556000,0.0324,0.013523,0.002678,0.000431,0.003056
557000,0.0324,0.013523,0.002678,0.000431,0.003643
558000,0.0324,0.013523,0.002678,0.000431,0.003761
559000,0.0324,0.013523,0.002678,0.000431,0.002821
560000,0.0324,0.013523,0.002678,0.000431,0.003526
561000,0.0324,0.013523,0.002678,0.000431,0.003408
562000,0.0324,0.013523,0.002678,0.000431,0.003173
563000,0.0324,0.013523,0.002678,0.000431,0.003173
564000,0.0324,0.013523,0.002678,0.000431,0.003878
565000,0.0324,0.013523,0.002678,0.000431,0.003291
566000,0.0324,0.013523,0.002678,0.000431,0.002938
567000,0.0324,0.013523,0.002678,0.000431,0.003878
568000,0.0324,0.013523,0.002678,0.000431,0.003291
569000,0.0324,0.013523,0.002678,0.000431,0.003173
570000,0.0324,0.013523,0.002678,0.000431,0.003173
571000,0.0324,0.013523,0.002678,0.000431,0.003526
572000,0.0324,0.013523,0.002678,0.000431,0.003056
573000,0.0324,0.013523,0.002678,0.000431,0.003526
574000,0.0324,0.013523,0.002678,0.000431,0.003643
575000,0.0324,0.013523,0.002678,0.000431,0.003643
576000,0.0324,0.013523,0.002678,0.000431,0.003291
577000,0.0324,0.013523,0.002678,0.000431,0.003408
578000,0.0324,0.013523,0.002678,0.000431,0.003291
579000,0.0324,0.013523,0.002678,0.000431,0.003291
580000,0.0324,0.013523,0.002678,0.000431,0.003408
581000,0.0324,0.013523,0.002678,0.000431,0.003526
582000,0.0324,0.013523,0.002678,0.000431,0.003643
583000,0.0324,0.013523,0.002678,0.000431,0.003173
584000,0.0324,0.013523,0.002678,0.000431,0.003408
585000,0.0324,0.013523,0.002678,0.000431,0.003643
586000,0.0324,0.013523,0.002678,0.000431,0.003761
587000,0.0324,0.013523,0.002678,0.000431,0.003291
588000,0.0324,0.013523,0.002678,0.000431,0.003526
589000,0.0324,0.013523,0.002678,0.000431,0.003173
590000,0.0324,0.013523,0.002678,0.000431,0.003291
591000,0.0324,0.013523,0.002678,0.000431,0.002938
592000,0.0324,0.013523,0.002678,0.000431,0.003643
593000,0.0324,0.013523,0.002678,0.000431,0.003878
594000,0.0324,0.013523,0.002678,0.000431,0.003173
595000,0.0324,0.013523,0.002678,0.000431,0.003761
596000,0.0324,0.013523,0.002678,0.000431,0.003408
597000,0.0324,0.013523,0.002678,0.000431,0.002938
598000,0.0324,0.013523,0.002678,0.000431,0.003408
599000,0.0324,0.013523,0.002678,0.000431,0.004113
600000,0.0324,0.013523,0.002678,0.000431,0.003056
601000,0.0324,0.013523,0.002678,0.000431,0.003526
602000,0.0324,0.013523,0.002678,0.000431,0.003878
603000,0.0324,0.013523,0.002678,0.000431,0.002938
604000,0.0324,0.013523,0.002678,0.000431,0.003291
605000,0.0324,0.013523,0.002678,0.000431,0.003996
606000,0.0324,0.013523,0.002678,0.000431,0.003408
607000,0.0324,0.013523,0.002678,0.000431,0.002821
608000,0.0324,0.013523,0.002678,0.000431,0.003996
609000,0.0324,0.013523,0.002678,0.000431,0.003878
610000,0.0324,0.013523,0.002678,0.000431,0.003056
611000,0.0324,0.013523,0.002678,0.000431,0.003643
612000,0.0324,0.013523,0.002678,0.000431,0.003526
613000,0.0324,0.013523,0.002678,0.000431,0.003408
614000,0.0324,0.013523,0.002678,0.000431,0.002821
615000,0.0324,0.013523,0.002678,0.000431,0.004113
616000,0.0324,0.013523,0.002678,0.000431,0.003643
617000,0.0324,0.013523,0.002678,0.000431,0.003056
618000,0.0324,0.013523,0.002678,0.000431,0.003643
619000,0.0324,0.013523,0.002678,0.000431,0.003643
620000,0.0324,0.013523,0.002678,0.000431,0.003056
621000,0.0324,0.013523,0.002678,0.000431,0.003291
622000,0.0324,0.013523,0.002678,0.000431,0.003878
623000,0.0324,0.013523,0.002678,0.000431,0.003408
624000,0.0324,0.013523,0.002678,0.000431,0.003526
625000,0.0324,0.013523,0.002678,0.000431,0.003408
626000,0.0324,0.013523,0.002678,0.000431,0.003761
627000,0.0324,0.013523,0.002678,0.000431,0.003526
628000,0.0324,0.013523,0.002678,0.000431,0.003408
629000,0.0324,0.013523,0.002678,0.000431,0.003643
630000,0.0324,0.013523,0.002678,0.000431,0.003526
631000,0.0324,0.013523,0.002678,0.000431,0.002821
632000,0.0324,0.013523,0.002678,0.000431,0.003643
633000,0.0324,0.013523,0.002678,0.000431,0.003526
634000,0.0324,0.013523,0.002678,0.000431,0.003526
635000,0.0324,0.013523,0.002678,0.000431,0.003526
636000,0.0324,0.013523,0.002678,0.000431,0.003761
637000,0.0324,0.013523,0.002678,0.000431,0.003173
638000,0.0324,0.013523,0.002678,0.000431,0.003291
639000,0.0324,0.013523,0.002678,0.000431,0.003643
640000,0.0324,0.013523,0.002678,0.000431,0.003291
641000,0.0324,0.013523,0.002678,0.000431,0.003408
642000,0.0324,0.013523,0.002678,0.000431,0.003643
643000,0.0324,0.013523,0.002678,0.000431,0.003526
644000,0.0324,0.013523,0.002678,0.000431,0.003408
645000,0.0324,0.013523,0.002678,0.000431,0.003526
646000,0.0324,0.013523,0.002678,0.000431,0.003408
647000,0.0324,0.013523,0.002678,0.000431,0.003526
648000,0.0324,0.013523,0.002678,0.000431,0.003408
649000,0.0324,0.013523,0.002678,0.000431,0.003291
650000,0.0324,0.013523,0.002678,0.000431,0.003878
651000,0.0324,0.013523,0.002678,0.000431,0.003643
652000,0.0324,0.013523,0.002678,0.000431,0.003408
653000,0.0324,0.013523,0.002678,0.000431,0.003643
654000,0.0324,0.013523,0.002678,0.000431,0.003878
655000,0.0324,0.013523,0.002678,0.000431,0.002703
656000,0.0324,0.013523,0.002678,0.000431,0.003643
657000,0.0324,0.013523,0.002678,0.000431,0.003291
658000,0.0324,0.013523,0.002678,0.000431,0.003291
659000,0.0324,0.013523,0.002678,0.000431,0.003408
660000,0.0324,0.013523,0.002678,0.000431,0.003643
661000,0.0324,0.013523,0.002678,0.000431,0.003173
662000,0.0324,0.013523,0.002678,0.000431,0.003408
663000,0.0324,0.013523,0.002678,0.000431,0.003526
664000,0.0324,0.013523,0.002678,0.000431,0.003643
665000,0.0324,0.013523,0.002678,0.000431,0.003408
666000,0.0324,0.013523,0.002678,0.000431,0.003408
667000,0.0324,0.013523,0.002678,0.000431,0.003643
668000,0.0324,0.013523,0.002678,0.000431,0.003173
669000,0.0324,0.013523,0.002678,0.000431,0.003291
670000,0.0324,0.013523,0.002678,0.000431,0.003878
671000,0.0324,0.013523,0.002678,0.000431,0.003173
672000,0.0324,0.013523,0.002678,0.000431,0.003408
673000,0.0324,0.013523,0.002678,0.000431,0.003291
674000,0.0324,0.013523,0.002678,0.000431,0.003761
675000,0.0324,0.013523,0.002678,0.000431,0.003643
676000,0.0324,0.013523,0.002678,0.000431,0.003291
677000,0.0324,0.013523,0.002678,0.000431,0.003408
678000,0.0324,0.013523,0.002678,0.000431,0.003643
679000,0.0324,0.013523,0.002678,0.000431,0.003056
680000,0.0324,0.013523,0.002678,0.000431,0.003408
681000,0.0324,0.013523,0.002678,0.000431,0.003761
682000,0.0324,0.013523,0.002678,0.000431,0.003408
683000,0.0324,0.013523,0.002678,0.000431,0.003291
684000,0.0324,0.013523,0.002678,0.000431,0.003408
685000,0.0324,0.013523,0.002678,0.000431,0.003526
686000,0.0324,0.013523,0.002678,0.000431,0.003056
687000,0.0324,0.013523,0.002678,0.000431,0.003643
688000,0.0324,0.013523,0.002678,0.000431,0.003408
689000,0.0324,0.013523,0.002678,0.000431,0.003526
690000,0.0324,0.013523,0.002678,0.000431,0.003291
691000,0.0324,0.013523,0.002678,0.000431,0.003643
692000,0.0324,0.013523,0.002678,0.000431,0.003526
693000,0.0324,0.013523,0.002678,0.000431,0.003056
694000,0.0324,0.013523,0.002678,0.000431,0.003878
695000,0.0324,0.013523,0.002678,0.000431,0.003526
696000,0.0324,0.013523,0.002678,0.000431,0.003291
697000,0.0324,0.013523,0.002678,0.000431,0.002586
698000,0.0324,0.013523,0.002678,0.000431,0.003878
699000,0.0324,0.013523,0.002678,0.000431,0.003291
700000,0.0324,0.013523,0.002678,0.000431,0.003056
701000,0.0324,0.013523,0.002678,0.000431,0.003761
702000,0.0324,0.013523,0.002678,0.000431,0.003761
703000,0.0324,0.013523,0.002678,0.000431,0.003291
704000,0.0324,0.013523,0.002678,0.000431,0.003526
705000,0.0324,0.013523,0.002678,0.000431,0.003526
706000,0.0324,0.013523,0.002678,0.000431,0.003173
707000,0.0324,0.013523,0.002678,0.000431,0.003526
708000,0.0324,0.013523,0.002678,0.000431,0.003761
709000,0.0324,0.013523,0.002678,0.000431,0.003173
710000,0.0324,0.013523,0.002678,0.000431,0.003056
711000,0.0324,0.013523,0.002678,0.000431,0.003996
712000,0.0324,0.013523,0.002678,0.000431,0.003526
713000,0.0324,0.013523,0.002678,0.000431,0.003173
714000,0.0324,0.013523,0.002678,0.000431,0.003643
715000,0.0324,0.013523,0.002678,0.000431,0.003526
716000,0.0324,0.013523,0.002678,0.000431,0.003291
717000,0.0324,0.013523,0.002678,0.000431,0.003643
718000,0.0324,0.013523,0.002678,0.000431,0.003643
719000,0.0324,0.013523,0.002678,0.000431,0.003291
720000,0.0324,0.013523,0.002678,0.000431,0.003408
721000,0.0324,0.013523,0.002678,0.000431,0.003408
722000,0.0324,0.013523,0.002678,0.000431,0.003643
723000,0.0324,0.013523,0.002678,0.000431,0.003526
724000,0.0324,0.013523,0.002678,0.000431,0.003526
725000,0.0324,0.013523,0.002678,0.000431,0.003173
726000,0.0324,0.013523,0.002678,0.000431,0.003526
727000,0.0324,0.013523,0.002678,0.000431,0.003408
728000,0.0324,0.013523,0.002678,0.000431,0.003291
729000,0.0324,0.013523,0.002678,0.000431,0.003526
730000,0.0324,0.013523,0.002678,0.000431,0.003173
731000,0.0324,0.013523,0.002678,0.000431,0.003408
732000,0.0324,0.013523,0.002678,0.000431,0.003291
733000,0.0324,0.013523,0.002678,0.000431,0.003878
734000,0.0324,0.013523,0.002678,0.000431,0.003173
735000,0.0324,0.013523,0.002678,0.000431,0.003526
736000,0.0324,0.013523,0.002678,0.000431,0.003408
737000,0.0324,0.013523,0.002678,0.000431,0.003761
738000,0.0324,0.013523,0.002678,0.000431,0.003408
739000,0.0324,0.013523,0.002678,0.000431,0.003291
740000,0.0324,0.013523,0.002678,0.000431,0.003878
741000,0.0324,0.013523,0.002678,0.000431,0.003408
742000,0.0324,0.013523,0.002678,0.000431,0.003291
743000,0.0324,0.013523,0.002678,0.000431,0.003643
744000,0.0324,0.013523,0.002678,0.000431,0.003408
745000,0.0324,0.013523,0.002678,0.000431,0.003408
746000,0.0324,0.013523,0.002678,0.000431,0.003526
747000,0.0324,0.013523,0.002678,0.000431,0.003643
748000,0.0324,0.013523,0.002678,0.000431,0.002821
749000,0.0324,0.013523,0.002678,0.000431,0.003761
750000,0.0324,0.013523,0.002678,0.000431,0.002821
751000,0.0324,0.013523,0.002678,0.000431,0.002703
752000,0.0324,0.013523,0.002678,0.000431,0.002468
753000,0.0324,0.013523,0.002678,0.000431,0.003056
754000,0.0324,0.013523,0.002678,0.000431,0.002468
755000,0.0324,0.013523,0.002678,0.000431,0.002468
756000,0.0324,0.013523,0.002678,0.000431,0.002938
757000,0.0324,0.013523,0.002678,0.000431,0.003056
758000,0.0324,0.013523,0.002678,0.000431,0.002351
759000,0.0324,0.013523,0.002678,0.000431,0.002938
760000,0.0324,0.013523,0.002678,0.000431,0.002938
761000,0.0324,0.013523,0.002678,0.000431,0.002586
762000,0.0324,0.013523,0.002678,0.000431,0.002586
763000,0.0324,0.013523,0.002678,0.000431,0.002938
764000,0.0324,0.013523,0.002678,0.000431,0.002821
765000,0.0324,0.013523,0.002678,0.000431,0.002233
766000,0.0324,0.013523,0.002678,0.000431,0.003056
767000,0.0324,0.013523,0.002678,0.000431,0.002821
768000,0.0324,0.013523,0.002678,0.000431,0.002821
769000,0.0324,0.013523,0.002678,0.000431,0.002703
770000,0.0324,0.013523,0.002678,0.000431,0.002821
771000,0.0324,0.013523,0.002678,0.000431,0.002703
772000,0.0324,0.013523,0.002678,0.000431,0.002586
773000,0.0324,0.013523,0.002678,0.000431,0.002821
774000,0.0324,0.013523,0.002678,0.000431,0.002821
775000,0.0324,0.013523,0.002678,0.000431,0.002938
776000,0.0324,0.013523,0.002678,0.000431,0.002468
777000,0.0324,0.013523,0.002678,0.000431,0.002821
778000,0.0324,0.013523,0.002678,0.000431,0.002703
779000,0.0324,0.013523,0.002678,0.000431,0.002703
780000,0.0324,0.013523,0.002678,0.000431,0.002821
781000,0.0324,0.013523,0.002678,0.000431,0.003173
782000,0.0324,0.013523,0.002678,0.000431,0.002468
783000,0.0324,0.013523,0.002678,0.000431,0.002586
784000,0.0324,0.013523,0.002678,0.000431,0.002351
785000,0.0324,0.013523,0.002678,0.000431,0.003056
786000,0.0324,0.013523,0.002678,0.000431,0.002821
787000,0.0324,0.013523,0.002678,0.000431,0.002586
788000,0.0324,0.013523,0.002678,0.000431,0.003056
789000,0.0324,0.013523,0.002678,0.000431,0.002233
790000,0.0324,0.013523,0.002678,0.000431,0.002821
791000,0.0324,0.013523,0.002678,0.000431,0.002703
792000,0.0324,0.013523,0.002678,0.000431,0.002821
793000,0.0324,0.013523,0.002678,0.000431,0.002468
794000,0.0324,0.013523,0.002678,0.000431,0.002703
795000,0.0324,0.013523,0.002678,0.000431,0.002938
796000,0.0324,0.013523,0.002678,0.000431,0.002351
797000,0.0324,0.013523,0.002678,0.000431,0.002703
798000,0.0324,0.013523,0.002678,0.000431,0.003173
799000,0.0324,0.013523,0.002678,0.000431,0.002703
800000,0.0324,0.013523,0.002678,0.000431,0.002351
801000,0.0324,0.013523,0.002678,0.000431,0.003291
802000,0.0324,0.013523,0.002678,0.000431,0.002468
803000,0.0324,0.013523,0.002678,0.000431,0.002586
804000,0.0324,0.013523,0.002678,0.000431,0.002821
805000,0.0324,0.013523,0.002678,0.000431,0.002938
806000,0.0324,0.013523,0.002678,0.000431,0.002233
807000,0.0324,0.013523,0.002678,0.000431,0.003056
808000,0.0324,0.013523,0.002678,0.000431,0.002938
809000,0.0324,0.013523,0.002678,0.000431,0.002468
810000,0.0324,0.013523,0.002678,0.000431,0.002351
811000,0.0324,0.013523,0.002678,0.000431,0.003173
812000,0.0324,0.013523,0.002678,0.000431,0.002468
813000,0.0324,0.013523,0.002678,0.000431,0.002821
814000,0.0324,0.013523,0.002678,0.000431,0.002703
815000,0.0324,0.013523,0.002678,0.000431,0.002938
816000,0.0324,0.013523,0.002678,0.000431,0.002468
817000,0.0324,0.013523,0.002678,0.000431,0.002468
818000,0.0324,0.013523,0.002678,0.000431,0.003173
819000,0.0324,0.013523,0.002678,0.000431,0.002468
820000,0.0324,0.013523,0.002678,0.000431,0.002351
821000,0.0324,0.013523,0.002678,0.000431,0.003291
822000,0.0324,0.013523,0.002678,0.000431,0.002821
823000,0.0324,0.013523,0.002678,0.000431,0.002586
824000,0.0324,0.013523,0.002678,0.000431,0.002938
825000,0.0324,0.013523,0.002678,0.000431,0.003056
826000,0.0324,0.013523,0.002678,0.000431,0.002703
827000,0.0324,0.013523,0.002678,0.000431,0.002586
828000,0.0324,0.013523,0.002678,0.000431,0.002821
829000,0.0324,0.013523,0.002678,0.000431,0.002116
830000,0.0324,0.013523,0.002678,0.000431,0.002468
831000,0.0324,0.013523,0.002678,0.000431,0.002821
832000,0.0324,0.013523,0.002678,0.000431,0.002116
833000,0.0324,0.013523,0.002678,0.000431,0.002233
834000,0.0324,0.013523,0.002678,0.000431,0.002586
835000,0.0324,0.013523,0.002678,0.000431,0.002468
836000,0.0324,0.013523,0.002678,0.000431,0.002116
837000,0.0324,0.013523,0.002678,0.000431,0.002351
838000,0.0324,0.013523,0.002678,0.000431,0.002586
839000,0.0324,0.013523,0.002678,0.000431,0.001998
840000,0.0324,0.013523,0.002678,0.000431,0.002468
841000,0.0324,0.013523,0.002678,0.000431,0.002233
842000,0.0324,0.013523,0.002678,0.000431,0.002468
843000,0.0324,0.013523,0.002678,0.000431,0.002351
844000,0.0324,0.013523,0.002678,0.000431,0.002116
845000,0.0324,0.013523,0.002678,0.000431,0.002586
846000,0.0324,0.013523,0.002678,0.000431,0.002351
847000,0.0324,0.013523,0.002678,0.000431,0.002116
848000,0.0324,0.013523,0.002678,0.000431,0.002821
849000,0.0324,0.013523,0.002678,0.000431,0.002351
850000,0.0324,0.013523,0.002678,0.000431,0.002116
851000,0.0324,0.013523,0.002678,0.000431,0.002703
852000,0.0324,0.013523,0.002678,0.000431,0.001645
853000,0.0324,0.013523,0.002678,0.000431,0.001645
854000,0.0324,0.013523,0.002678,0.000431,0.001880
855000,0.0324,0.013523,0.002678,0.000431,0.001645
856000,0.0324,0.013523,0.002678,0.000431,0.001645
857000,0.0324,0.013523,0.002678,0.000431,0.001528
858000,0.0324,0.013523,0.002678,0.000431,0.001763
859000,0.0324,0.013523,0.002678,0.000431,0.001645
860000,0.0324,0.013523,0.002678,0.000431,0.001645
861000,0.0324,0.013523,0.002678,0.000431,0.001528
862000,0.0324,0.013523,0.002678,0.000431,0.001528
863000,0.0324,0.013523,0.002678,0.000431,0.001880
864000,0.0324,0.013523,0.002678,0.000431,0.001763
865000,0.0324,0.013523,0.002678,0.000431,0.001645
866000,0.0324,0.013523,0.002678,0.000431,0.001880
867000,0.0324,0.013523,0.002678,0.000431,0.001645
868000,0.0324,0.013523,0.002678,0.000431,0.001645
869000,0.0324,0.013523,0.002678,0.000431,0.001763
870000,0.0324,0.013523,0.002678,0.000431,0.001880
871000,0.0324,0.013523,0.002678,0.000431,0.001410
872000,0.0324,0.013523,0.002678,0.000431,0.001763
873000,0.0324,0.013523,0.002678,0.000431,0.001528
874000,0.0324,0.013523,0.002678,0.000431,0.001880
875000,0.0324,0.013523,0.002678,0.000431,0.001528
876000,0.0324,0.013523,0.002678,0.000431,0.002116
877000,0.0324,0.013523,0.002678,0.000431,0.001410
878000,0.0324,0.013523,0.002678,0.000431,0.001763
879000,0.0324,0.013523,0.002678,0.000431,0.001763
880000,0.0324,0.013523,0.002678,0.000431,0.001880
881000,0.0324,0.013523,0.002678,0.000431,0.001528
882000,0.0324,0.013523,0.002678,0.000431,0.001645
883000,0.0324,0.013523,0.002678,0.000431,0.001880
884000,0.0324,0.013523,0.002678,0.000431,0.001528
885000,0.0324,0.013523,0.002678,0.000431,0.001763
886000,0.0324,0.013523,0.002678,0.000431,0.001410
887000,0.0324,0.013523,0.002678,0.000431,0.001880
888000,0.0324,0.013523,0.002678,0.000431,0.001293
889000,0.0324,0.013523,0.002678,0.000431,0.001763
890000,0.0324,0.013523,0.002678,0.000431,0.001880
891000,0.0324,0.013523,0.002678,0.000431,0.001528
892000,0.0324,0.013523,0.002678,0.000431,0.001528
893000,0.0324,0.013523,0.002678,0.000431,0.001763
894000,0.0324,0.013523,0.002678,0.000431,0.001763
895000,0.0324,0.013523,0.002678,0.000431,0.001528
896000,0.0324,0.013523,0.002678,0.000431,0.001763
897000,0.0324,0.013523,0.002678,0.000431,0.001880
898000,0.0324,0.013523,0.002678,0.000431,0.001763
899000,0.0324,0.013523,0.002678,0.000431,0.001410
900000,0.0324,0.013523,0.002678,0.000431,0.001998
901000,0.0324,0.013523,0.002678,0.000431,0.001293
902000,0.0324,0.013523,0.002678,0.000431,0.001763
903000,0.0324,0.013523,0.002678,0.000431,0.001880
904000,0.0324,0.013523,0.002678,0.000431,0.001645
905000,0.0324,0.013523,0.002678,0.000431,0.001763
906000,0.0324,0.013523,0.002678,0.000431,0.001528
907000,0.0324,0.013523,0.002678,0.000431,0.001998
908000,0.0324,0.013523,0.002678,0.000431,0.001528
909000,0.0324,0.013523,0.002678,0.000431,0.001645
910000,0.0324,0.013523,0.002678,0.000431,0.001880
911000,0.0324,0.013523,0.002678,0.000431,0.001763
912000,0.0324,0.013523,0.002678,0.000431,0.001410
913000,0.0324,0.013523,0.002678,0.000431,0.001880
914000,0.0324,0.013523,0.002678,0.000431,0.001880
915000,0.0324,0.013523,0.002678,0.000431,0.001410
916000,0.0324,0.013523,0.002678,0.000431,0.001645
917000,0.0324,0.013523,0.002678,0.000431,0.001763
918000,0.0324,0.013523,0.002678,0.000431,0.001645
919000,0.0324,0.013523,0.002678,0.000431,0.001528
920000,0.0324,0.013523,0.002678,0.000431,0.001998
921000,0.0324,0.013523,0.002678,0.000431,0.001528
922000,0.0324,0.013523,0.002678,0.000431,0.001645
923000,0.0324,0.013523,0.002678,0.000431,0.001763
924000,0.0324,0.013523,0.002678,0.000431,0.001763
925000,0.0324,0.013523,0.002678,0.000431,0.001410
926000,0.0324,0.013523,0.002678,0.000431,0.001880
927000,0.0324,0.013523,0.002678,0.000431,0.001763
928000,0.0324,0.013523,0.002678,0.000431,0.001763
929000,0.0324,0.013523,0.002678,0.000431,0.001528
930000,0.0324,0.013523,0.002678,0.000431,0.001880
931000,0.0324,0.013523,0.002678,0.000431,0.001528
932000,0.0324,0.013523,0.002678,0.000431,0.001410
933000,0.0324,0.013523,0.002678,0.000431,0.001998
934000,0.0324,0.013523,0.002678,0.000431,0.001528
935000,0.0324,0.013523,0.002678,0.000431,0.001763
936000,0.0324,0.013523,0.002678,0.000431,0.001880
937000,0.0324,0.013523,0.002678,0.000431,0.001528
938000,0.0324,0.013523,0.002678,0.000431,0.001763
939000,0.0324,0.013523,0.002678,0.000431,0.001763
940000,0.0324,0.013523,0.002678,0.000431,0.001763
941000,0.0324,0.013523,0.002678,0.000431,0.001410
942000,0.0324,0.013523,0.002678,0.000431,0.001998
943000,0.0324,0.013523,0.002678,0.000431,0.001528
944000,0.0324,0.013523,0.002678,0.000431,0.001645
945000,0.0324,0.013523,0.002678,0.000431,0.001880
946000,0.0324,0.013523,0.002678,0.000431,0.001528
947000,0.0324,0.013523,0.002678,0.000431,0.001645
948000,0.0324,0.013523,0.002678,0.000431,0.001763
949000,0.0324,0.013523,0.002678,0.000431,0.001763
950000,0.0324,0.013523,0.002678,0.000431,0.001763
951000,0.0324,0.013523,0.002678,0.000431,0.001763
952000,0.0324,0.013523,0.002678,0.000431,0.001880
953000,0.0324,0.013523,0.002678,0.000431,0.001645
954000,0.0324,0.013523,0.002678,0.000431,0.001410
955000,0.0324,0.013523,0.002678,0.000431,0.001880
956000,0.0324,0.013523,0.002678,0.000431,0.001528
957000,0.0324,0.013523,0.002678,0.000431,0.001645
958000,0.0324,0.013523,0.002678,0.000431,0.001880
959000,0.0324,0.013523,0.002678,0.000431,0.001645
960000,0.0324,0.013523,0.002678,0.000431,0.001763
961000,0.0324,0.013523,0.002678,0.000431,0.001645
962000,0.0324,0.013523,0.002678,0.000431,0.001645
963000,0.0324,0.013523,0.002678,0.000431,0.001645
964000,0.0324,0.013523,0.002678,0.000431,0.001763
965000,0.0324,0.013523,0.002678,0.000431,0.001880
966000,0.0324,0.013523,0.002678,0.000431,0.001645
967000,0.0324,0.013523,0.002678,0.000431,0.001645
968000,0.0324,0.013523,0.002678,0.000431,0.001763
969000,0.0324,0.013523,0.002678,0.000431,0.001645
970000,0.0324,0.013523,0.002678,0.000431,0.001528
971000,0.0324,0.013523,0.002678,0.000431,0.001645
972000,0.0324,0.013523,0.002678,0.000431,0.001880
973000,0.0324,0.013523,0.002678,0.000431,0.001645
974000,0.0324,0.013523,0.002678,0.000431,0.001528
975000,0.0324,0.013523,0.002678,0.000431,0.001998
976000,0.0324,0.013523,0.002678,0.000431,0.001645
977000,0.0324,0.013523,0.002678,0.000431,0.001528
978000,0.0324,0.013523,0.002678,0.000431,0.001763
979000,0.0324,0.013523,0.002678,0.000431,0.001528
980000,0.0324,0.013523,0.002678,0.000431,0.001645
981000,0.0324,0.013523,0.002678,0.000431,0.001880
982000,0.0324,0.013523,0.002678,0.000431,0.001998
983000,0.0324,0.013523,0.002678,0.000431,0.001528
984000,0.0324,0.013523,0.002678,0.000431,0.001645
985000,0.0324,0.013523,0.002678,0.000431,0.001880
986000,0.0324,0.013523,0.002678,0.000431,0.001410
987000,0.0324,0.013523,0.002678,0.000431,0.001645
988000,0.0324,0.013523,0.002678,0.000431,0.001880
989000,0.0324,0.013523,0.002678,0.000431,0.001645
990000,0.0324,0.013523,0.002678,0.000431,0.001763
991000,0.0324,0.013523,0.002678,0.000431,0.001880
992000,0.0324,0.013523,0.002678,0.000431,0.001645
993000,0.0324,0.013523,0.002678,0.000431,0.001763
994000,0.0324,0.013523,0.002678,0.000431,0.001763
995000,0.0324,0.013523,0.002678,0.000431,0.001880
996000,0.0324,0.013523,0.002678,0.000431,0.001410
997000,0.0324,0.013523,0.002678,0.000431,0.001763
998000,0.0324,0.013523,0.002678,0.000431,0.001880
999000,0.0324,0.013523,0.002678,0.000431,0.001645
