Cycle,Area(mm^2),PeakDynamic(W),SubthresholdLeakage(W),GateLeakage(W),RunTimeDynamic(W)
9000000,0.0324,0.013523,0.002678,0.000431,1.936394
9001000,0.0324,0.013523,0.002678,0.000431,1.874927
9002000,0.0324,0.013523,0.002678,0.000431,1.875280
9003000,0.0324,0.013523,0.002678,0.000431,1.912654
9004000,0.0324,0.013523,0.002678,0.000431,1.820512
9005000,0.0324,0.013523,0.002678,0.000431,1.802295
9006000,0.0324,0.013523,0.002678,0.000431,1.829326
9007000,0.0324,0.013523,0.002678,0.000431,1.841667
9008000,0.0324,0.013523,0.002678,0.000431,1.701926
9009000,0.0324,0.013523,0.002678,0.000431,1.761160
9010000,0.0324,0.013523,0.002678,0.000431,1.798769
9011000,0.0324,0.013523,0.002678,0.000431,1.781375
9012000,0.0324,0.013523,0.002678,0.000431,1.701808
9013000,0.0324,0.013523,0.002678,0.000431,1.739887
9014000,0.0324,0.013523,0.002678,0.000431,1.840491
9015000,0.0324,0.013523,0.002678,0.000431,1.838376
9016000,0.0324,0.013523,0.002678,0.000431,1.765861
9017000,0.0324,0.013523,0.002678,0.000431,1.822274
9018000,0.0324,0.013523,0.002678,0.000431,1.839434
9019000,0.0324,0.013523,0.002678,0.000431,1.852714
9020000,0.0324,0.013523,0.002678,0.000431,1.794655
9021000,0.0324,0.013523,0.002678,0.000431,1.836025
9022000,0.0324,0.013523,0.002678,0.000431,1.756224
9023000,0.0324,0.013523,0.002678,0.000431,1.749995
9024000,0.0324,0.013523,0.002678,0.000431,1.801002
9025000,0.0324,0.013523,0.002678,0.000431,1.745529
9026000,0.0324,0.013523,0.002678,0.000431,1.779494
9027000,0.0324,0.013523,0.002678,0.000431,1.699222
9028000,0.0324,0.013523,0.002678,0.000431,1.750935
9029000,0.0324,0.013523,0.002678,0.000431,1.737419
9030000,0.0324,0.013523,0.002678,0.000431,1.709565
9031000,0.0324,0.013523,0.002678,0.000431,1.629058
9032000,0.0324,0.013523,0.002678,0.000431,1.643749
9033000,0.0324,0.013523,0.002678,0.000431,1.737184
9034000,0.0324,0.013523,0.002678,0.000431,1.712973
9035000,0.0324,0.013523,0.002678,0.000431,1.647863
9036000,0.0324,0.013523,0.002678,0.000431,1.784901
9037000,0.0324,0.013523,0.002678,0.000431,1.947795
9038000,0.0324,0.013523,0.002678,0.000431,1.862704
9039000,0.0324,0.013523,0.002678,0.000431,1.885035
9040000,0.0324,0.013523,0.002678,0.000431,1.991985
9041000,0.0324,0.013523,0.002678,0.000431,2.121736
9042000,0.0324,0.013523,0.002678,0.000431,1.949793
9043000,0.0324,0.013523,0.002678,0.000431,2.114567
9044000,0.0324,0.013523,0.002678,0.000431,2.007734
9045000,0.0324,0.013523,0.002678,0.000431,2.164752
9046000,0.0324,0.013523,0.002678,0.000431,2.106105
9047000,0.0324,0.013523,0.002678,0.000431,2.186494
9048000,0.0324,0.013523,0.002678,0.000431,2.261830
9049000,0.0324,0.013523,0.002678,0.000431,2.105165
9050000,0.0324,0.013523,0.002678,0.000431,2.254661
9051000,0.0324,0.013523,0.002678,0.000431,2.272642
9052000,0.0324,0.013523,0.002678,0.000431,2.204711
9053000,0.0324,0.013523,0.002678,0.000431,2.233388
9054000,0.0324,0.013523,0.002678,0.000431,2.208707
9055000,0.0324,0.013523,0.002678,0.000431,2.328938
9056000,0.0324,0.013523,0.002678,0.000431,2.293445
9057000,0.0324,0.013523,0.002678,0.000431,2.179560
9058000,0.0324,0.013523,0.002678,0.000431,2.184261
9059000,0.0324,0.013523,0.002678,0.000431,2.280047
9060000,0.0324,0.013523,0.002678,0.000431,2.343394
9061000,0.0324,0.013523,0.002678,0.000431,2.306491
9062000,0.0324,0.013523,0.002678,0.000431,2.257246
9063000,0.0324,0.013523,0.002678,0.000431,2.300732
9064000,0.0324,0.013523,0.002678,0.000431,2.230802
9065000,0.0324,0.013523,0.002678,0.000431,2.227394
9066000,0.0324,0.013523,0.002678,0.000431,2.279107
9067000,0.0324,0.013523,0.002678,0.000431,2.152411
9068000,0.0324,0.013523,0.002678,0.000431,2.188257
9069000,0.0324,0.013523,0.002678,0.000431,2.172508
9070000,0.0324,0.013523,0.002678,0.000431,2.178385
9071000,0.0324,0.013523,0.002678,0.000431,2.297088
9072000,0.0324,0.013523,0.002678,0.000431,2.263240
9073000,0.0324,0.013523,0.002678,0.000431,2.265356
9074000,0.0324,0.013523,0.002678,0.000431,2.404509
9075000,0.0324,0.013523,0.002678,0.000431,2.549069
9076000,0.0324,0.013523,0.002678,0.000431,2.522860
9077000,0.0324,0.013523,0.002678,0.000431,2.608185
9078000,0.0324,0.013523,0.002678,0.000431,2.713608
9079000,0.0324,0.013523,0.002678,0.000431,2.675999
9080000,0.0324,0.013523,0.002678,0.000431,2.737701
9081000,0.0324,0.013523,0.002678,0.000431,2.885199
9082000,0.0324,0.013523,0.002678,0.000431,2.887667
9083000,0.0324,0.013523,0.002678,0.000431,2.842889
9084000,0.0324,0.013523,0.002678,0.000431,2.930683
9085000,0.0324,0.013523,0.002678,0.000431,2.898598
9086000,0.0324,0.013523,0.002678,0.000431,2.801519
9087000,0.0324,0.013523,0.002678,0.000431,2.869216
9088000,0.0324,0.013523,0.002678,0.000431,2.916462
9089000,0.0324,0.013523,0.002678,0.000431,2.950075
9090000,0.0324,0.013523,0.002678,0.000431,2.775546
9091000,0.0324,0.013523,0.002678,0.000431,2.814917
9092000,0.0324,0.013523,0.002678,0.000431,2.790354
9093000,0.0324,0.013523,0.002678,0.000431,2.831489
9094000,0.0324,0.013523,0.002678,0.000431,2.748867
9095000,0.0324,0.013523,0.002678,0.000431,2.743930
9096000,0.0324,0.013523,0.002678,0.000431,2.619468
9097000,0.0324,0.013523,0.002678,0.000431,2.687987
9098000,0.0324,0.013523,0.002678,0.000431,2.731355
9099000,0.0324,0.013523,0.002678,0.000431,2.746281
9100000,0.0324,0.013523,0.002678,0.000431,2.750395
9101000,0.0324,0.013523,0.002678,0.000431,2.674001
9102000,0.0324,0.013523,0.002678,0.000431,2.632749
9103000,0.0324,0.013523,0.002678,0.000431,2.658840
9104000,0.0324,0.013523,0.002678,0.000431,2.642504
9105000,0.0324,0.013523,0.002678,0.000431,2.693628
9106000,0.0324,0.013523,0.002678,0.000431,2.673179
9107000,0.0324,0.013523,0.002678,0.000431,2.688340
9108000,0.0324,0.013523,0.002678,0.000431,2.678232
9109000,0.0324,0.013523,0.002678,0.000431,2.666127
9110000,0.0324,0.013523,0.002678,0.000431,2.708790
9111000,0.0324,0.013523,0.002678,0.000431,2.755213
9112000,0.0324,0.013523,0.002678,0.000431,2.608185
9113000,0.0324,0.013523,0.002678,0.000431,2.578921
9114000,0.0324,0.013523,0.002678,0.000431,2.648145
9115000,0.0324,0.013523,0.002678,0.000431,2.605717
9116000,0.0324,0.013523,0.002678,0.000431,2.576453
9117000,0.0324,0.013523,0.002678,0.000431,2.695039
9118000,0.0324,0.013523,0.002678,0.000431,2.682228
9119000,0.0324,0.013523,0.002678,0.000431,2.668007
9120000,0.0324,0.013523,0.002678,0.000431,2.618763
9121000,0.0324,0.013523,0.002678,0.000431,2.583152
9122000,0.0324,0.013523,0.002678,0.000431,2.667420
9123000,0.0324,0.013523,0.002678,0.000431,2.648263
9124000,0.0324,0.013523,0.002678,0.000431,2.678232
9125000,0.0324,0.013523,0.002678,0.000431,2.613944
9126000,0.0324,0.013523,0.002678,0.000431,2.556708
9127000,0.0324,0.013523,0.002678,0.000431,2.658252
9128000,0.0324,0.013523,0.002678,0.000431,2.671298
9129000,0.0324,0.013523,0.002678,0.000431,2.648145
9130000,0.0324,0.013523,0.002678,0.000431,2.667302
9131000,0.0324,0.013523,0.002678,0.000431,2.716899
9132000,0.0324,0.013523,0.002678,0.000431,2.635922
9133000,0.0324,0.013523,0.002678,0.000431,2.663894
9134000,0.0324,0.013523,0.002678,0.000431,2.791412
9135000,0.0324,0.013523,0.002678,0.000431,2.921163
9136000,0.0324,0.013523,0.002678,0.000431,2.913759
9137000,0.0324,0.013523,0.002678,0.000431,2.956892
9138000,0.0324,0.013523,0.002678,0.000431,2.812332
9139000,0.0324,0.013523,0.002678,0.000431,2.909293
9140000,0.0324,0.013523,0.002678,0.000431,2.772490
9141000,0.0324,0.013523,0.002678,0.000431,2.995676
9142000,0.0324,0.013523,0.002678,0.000431,2.851116
9143000,0.0324,0.013523,0.002678,0.000431,2.668477
9144000,0.0324,0.013523,0.002678,0.000431,2.792587
9145000,0.0324,0.013523,0.002678,0.000431,2.887667
9146000,0.0324,0.013523,0.002678,0.000431,2.740757
9147000,0.0324,0.013523,0.002678,0.000431,2.885199
9148000,0.0324,0.013523,0.002678,0.000431,2.674001
9149000,0.0324,0.013523,0.002678,0.000431,2.636745
9150000,0.0324,0.013523,0.002678,0.000431,2.669183
9151000,0.0324,0.013523,0.002678,0.000431,2.575630
9152000,0.0324,0.013523,0.002678,0.000431,2.729004
9153000,0.0324,0.013523,0.002678,0.000431,2.466564
9154000,0.0324,0.013523,0.002678,0.000431,2.427192
9155000,0.0324,0.013523,0.002678,0.000431,2.526386
9156000,0.0324,0.013523,0.002678,0.000431,2.335167
9157000,0.0324,0.013523,0.002678,0.000431,2.534965
9158000,0.0324,0.013523,0.002678,0.000431,2.368663
9159000,0.0324,0.013523,0.002678,0.000431,2.449170
9160000,0.0324,0.013523,0.002678,0.000431,2.466799
9161000,0.0324,0.013523,0.002678,0.000431,2.474438
9162000,0.0324,0.013523,0.002678,0.000431,2.448817
9163000,0.0324,0.013523,0.002678,0.000431,2.409210
9164000,0.0324,0.013523,0.002678,0.000431,2.226924
9165000,0.0324,0.013523,0.002678,0.000431,2.386410
9166000,0.0324,0.013523,0.002678,0.000431,2.405214
9167000,0.0324,0.013523,0.002678,0.000431,2.303905
9168000,0.0324,0.013523,0.002678,0.000431,2.261830
9169000,0.0324,0.013523,0.002678,0.000431,2.228687
9170000,0.0324,0.013523,0.002678,0.000431,2.304375
9171000,0.0324,0.013523,0.002678,0.000431,2.281810
9172000,0.0324,0.013523,0.002678,0.000431,2.266061
9173000,0.0324,0.013523,0.002678,0.000431,2.303670
9174000,0.0324,0.013523,0.002678,0.000431,2.378653
9175000,0.0324,0.013523,0.002678,0.000431,2.227629
9176000,0.0324,0.013523,0.002678,0.000431,2.455164
9177000,0.0324,0.013523,0.002678,0.000431,2.346333
9178000,0.0324,0.013523,0.002678,0.000431,2.334345
9179000,0.0324,0.013523,0.002678,0.000431,2.382414
9180000,0.0324,0.013523,0.002678,0.000431,2.296501
9181000,0.0324,0.013523,0.002678,0.000431,2.347625
9182000,0.0324,0.013523,0.002678,0.000431,2.374657
9183000,0.0324,0.013523,0.002678,0.000431,2.364432
9184000,0.0324,0.013523,0.002678,0.000431,2.216464
9185000,0.0324,0.013523,0.002678,0.000431,2.155584
9186000,0.0324,0.013523,0.002678,0.000431,2.244083
9187000,0.0324,0.013523,0.002678,0.000431,2.180618
9188000,0.0324,0.013523,0.002678,0.000431,2.230097
9189000,0.0324,0.013523,0.002678,0.000431,2.157112
9190000,0.0324,0.013523,0.002678,0.000431,2.142891
9191000,0.0324,0.013523,0.002678,0.000431,2.301319
9192000,0.0324,0.013523,0.002678,0.000431,2.182381
9193000,0.0324,0.013523,0.002678,0.000431,2.200480
9194000,0.0324,0.013523,0.002678,0.000431,2.291212
9195000,0.0324,0.013523,0.002678,0.000431,2.271820
9196000,0.0324,0.013523,0.002678,0.000431,2.135840
9197000,0.0324,0.013523,0.002678,0.000431,2.217874
9198000,0.0324,0.013523,0.002678,0.000431,2.324590
9199000,0.0324,0.013523,0.002678,0.000431,2.204594
9200000,0.0324,0.013523,0.002678,0.000431,2.180148
9201000,0.0324,0.013523,0.002678,0.000431,2.018194
9202000,0.0324,0.013523,0.002678,0.000431,2.119973
9203000,0.0324,0.013523,0.002678,0.000431,2.136075
9204000,0.0324,0.013523,0.002678,0.000431,1.965306
9205000,0.0324,0.013523,0.002678,0.000431,2.003385
9206000,0.0324,0.013523,0.002678,0.000431,2.118445
9207000,0.0324,0.013523,0.002678,0.000431,2.204359
9208000,0.0324,0.013523,0.002678,0.000431,2.117153
9209000,0.0324,0.013523,0.002678,0.000431,1.944621
9210000,0.0324,0.013523,0.002678,0.000431,1.944974
9211000,0.0324,0.013523,0.002678,0.000431,2.018664
9212000,0.0324,0.013523,0.002678,0.000431,1.917237
9213000,0.0324,0.013523,0.002678,0.000431,2.138308
9214000,0.0324,0.013523,0.002678,0.000431,2.019604
9215000,0.0324,0.013523,0.002678,0.000431,2.083305
9216000,0.0324,0.013523,0.002678,0.000431,2.155937
9217000,0.0324,0.013523,0.002678,0.000431,2.050867
9218000,0.0324,0.013523,0.002678,0.000431,2.153821
9219000,0.0324,0.013523,0.002678,0.000431,2.124674
9220000,0.0324,0.013523,0.002678,0.000431,2.031827
9221000,0.0324,0.013523,0.002678,0.000431,2.074137
9222000,0.0324,0.013523,0.002678,0.000431,2.228099
9223000,0.0324,0.013523,0.002678,0.000431,2.041700
9224000,0.0324,0.013523,0.002678,0.000431,2.166867
9225000,0.0324,0.013523,0.002678,0.000431,2.054158
9226000,0.0324,0.013523,0.002678,0.000431,2.055920
9227000,0.0324,0.013523,0.002678,0.000431,1.999977
9228000,0.0324,0.013523,0.002678,0.000431,1.987284
9229000,0.0324,0.013523,0.002678,0.000431,2.037704
9230000,0.0324,0.013523,0.002678,0.000431,1.979997
9231000,0.0324,0.013523,0.002678,0.000431,1.928637
9232000,0.0324,0.013523,0.002678,0.000431,2.029007
9233000,0.0324,0.013523,0.002678,0.000431,2.021015
9234000,0.0324,0.013523,0.002678,0.000431,2.039231
9235000,0.0324,0.013523,0.002678,0.000431,2.080131
9236000,0.0324,0.013523,0.002678,0.000431,1.915239
9237000,0.0324,0.013523,0.002678,0.000431,1.992925
9238000,0.0324,0.013523,0.002678,0.000431,1.988694
9239000,0.0324,0.013523,0.002678,0.000431,1.981525
9240000,0.0324,0.013523,0.002678,0.000431,2.034648
9241000,0.0324,0.013523,0.002678,0.000431,2.079544
9242000,0.0324,0.013523,0.002678,0.000431,2.092002
9243000,0.0324,0.013523,0.002678,0.000431,2.001505
9244000,0.0324,0.013523,0.002678,0.000431,2.053570
9245000,0.0324,0.013523,0.002678,0.000431,2.013023
9246000,0.0324,0.013523,0.002678,0.000431,2.010320
9247000,0.0324,0.013523,0.002678,0.000431,1.995864
9248000,0.0324,0.013523,0.002678,0.000431,1.978940
9249000,0.0324,0.013523,0.002678,0.000431,1.936512
9250000,0.0324,0.013523,0.002678,0.000431,1.993278
9251000,0.0324,0.013523,0.002678,0.000431,1.974356
9252000,0.0324,0.013523,0.002678,0.000431,2.036998
9253000,0.0324,0.013523,0.002678,0.000431,1.969302
9254000,0.0324,0.013523,0.002678,0.000431,2.019017
9255000,0.0324,0.013523,0.002678,0.000431,1.851304
9256000,0.0324,0.013523,0.002678,0.000431,2.095410
9257000,0.0324,0.013523,0.002678,0.000431,1.844017
9258000,0.0324,0.013523,0.002678,0.000431,1.985756
9259000,0.0324,0.013523,0.002678,0.000431,2.042757
9260000,0.0324,0.013523,0.002678,0.000431,2.025598
9261000,0.0324,0.013523,0.002678,0.000431,2.113274
9262000,0.0324,0.013523,0.002678,0.000431,2.026891
9263000,0.0324,0.013523,0.002678,0.000431,2.084480
9264000,0.0324,0.013523,0.002678,0.000431,1.995158
9265000,0.0324,0.013523,0.002678,0.000431,2.002680
9266000,0.0324,0.013523,0.002678,0.000431,2.094587
9267000,0.0324,0.013523,0.002678,0.000431,2.013023
9268000,0.0324,0.013523,0.002678,0.000431,2.127965
9269000,0.0324,0.013523,0.002678,0.000431,2.107398
9270000,0.0324,0.013523,0.002678,0.000431,2.154762
9271000,0.0324,0.013523,0.002678,0.000431,2.112569
9272000,0.0324,0.013523,0.002678,0.000431,2.102579
9273000,0.0324,0.013523,0.002678,0.000431,2.206122
9274000,0.0324,0.013523,0.002678,0.000431,2.234798
9275000,0.0324,0.013523,0.002678,0.000431,2.115155
9276000,0.0324,0.013523,0.002678,0.000431,2.064970
9277000,0.0324,0.013523,0.002678,0.000431,2.175447
9278000,0.0324,0.013523,0.002678,0.000431,2.134899
9279000,0.0324,0.013523,0.002678,0.000431,2.123617
9280000,0.0324,0.013523,0.002678,0.000431,2.064970
9281000,0.0324,0.013523,0.002678,0.000431,2.025011
9282000,0.0324,0.013523,0.002678,0.000431,2.049221
9283000,0.0324,0.013523,0.002678,0.000431,2.056038
9284000,0.0324,0.013523,0.002678,0.000431,2.000447
9285000,0.0324,0.013523,0.002678,0.000431,2.025128
9286000,0.0324,0.013523,0.002678,0.000431,2.026891
9287000,0.0324,0.013523,0.002678,0.000431,1.976236
9288000,0.0324,0.013523,0.002678,0.000431,1.982465
9289000,0.0324,0.013523,0.002678,0.000431,1.971065
9290000,0.0324,0.013523,0.002678,0.000431,2.063912
9291000,0.0324,0.013523,0.002678,0.000431,2.066498
9292000,0.0324,0.013523,0.002678,0.000431,2.142421
9293000,0.0324,0.013523,0.002678,0.000431,2.092002
9294000,0.0324,0.013523,0.002678,0.000431,2.187435
9295000,0.0324,0.013523,0.002678,0.000431,2.167455
9296000,0.0324,0.013523,0.002678,0.000431,2.111746
9297000,0.0324,0.013523,0.002678,0.000431,2.205416
9298000,0.0324,0.013523,0.002678,0.000431,2.164752
9299000,0.0324,0.013523,0.002678,0.000431,2.263945
9300000,0.0324,0.013523,0.002678,0.000431,2.181676
9301000,0.0324,0.013523,0.002678,0.000431,2.247021
9302000,0.0324,0.013523,0.002678,0.000431,2.220813
9303000,0.0324,0.013523,0.002678,0.000431,2.164987
9304000,0.0324,0.013523,0.002678,0.000431,2.258539
9305000,0.0324,0.013523,0.002678,0.000431,2.267354
9306000,0.0324,0.013523,0.002678,0.000431,2.308606
9307000,0.0324,0.013523,0.002678,0.000431,2.269704
9308000,0.0324,0.013523,0.002678,0.000431,2.268647
9309000,0.0324,0.013523,0.002678,0.000431,2.256776
9310000,0.0324,0.013523,0.002678,0.000431,2.298734
9311000,0.0324,0.013523,0.002678,0.000431,2.348096
9312000,0.0324,0.013523,0.002678,0.000431,2.402511
9313000,0.0324,0.013523,0.002678,0.000431,2.370661
9314000,0.0324,0.013523,0.002678,0.000431,2.416614
9315000,0.0324,0.013523,0.002678,0.000431,2.338811
9316000,0.0324,0.013523,0.002678,0.000431,2.251017
9317000,0.0324,0.013523,0.002678,0.000431,2.184261
9318000,0.0324,0.013523,0.002678,0.000431,2.314718
9319000,0.0324,0.013523,0.002678,0.000431,2.310604
9320000,0.0324,0.013523,0.002678,0.000431,2.453753
9321000,0.0324,0.013523,0.002678,0.000431,2.469150
9322000,0.0324,0.013523,0.002678,0.000431,2.471970
9323000,0.0324,0.013523,0.002678,0.000431,2.426839
9324000,0.0324,0.013523,0.002678,0.000431,2.349858
9325000,0.0324,0.013523,0.002678,0.000431,2.457984
9326000,0.0324,0.013523,0.002678,0.000431,2.438945
9327000,0.0324,0.013523,0.002678,0.000431,2.386410
9328000,0.0324,0.013523,0.002678,0.000431,2.455869
9329000,0.0324,0.013523,0.002678,0.000431,2.449052
9330000,0.0324,0.013523,0.002678,0.000431,2.399690
9331000,0.0324,0.013523,0.002678,0.000431,2.392756
9332000,0.0324,0.013523,0.002678,0.000431,2.467152
9333000,0.0324,0.013523,0.002678,0.000431,2.267119
9334000,0.0324,0.013523,0.002678,0.000431,2.464448
9335000,0.0324,0.013523,0.002678,0.000431,2.476201
9336000,0.0324,0.013523,0.002678,0.000431,2.465859
9337000,0.0324,0.013523,0.002678,0.000431,2.405802
9338000,0.0324,0.013523,0.002678,0.000431,2.464919
9339000,0.0324,0.013523,0.002678,0.000431,2.455986
9340000,0.0324,0.013523,0.002678,0.000431,2.440825
9341000,0.0324,0.013523,0.002678,0.000431,2.395930
9342000,0.0324,0.013523,0.002678,0.000431,2.440943
9343000,0.0324,0.013523,0.002678,0.000431,2.283808
9344000,0.0324,0.013523,0.002678,0.000431,2.361964
9345000,0.0324,0.013523,0.002678,0.000431,2.231273
9346000,0.0324,0.013523,0.002678,0.000431,2.372071
9347000,0.0324,0.013523,0.002678,0.000431,2.310839
9348000,0.0324,0.013523,0.002678,0.000431,2.324120
9349000,0.0324,0.013523,0.002678,0.000431,2.201068
9350000,0.0324,0.013523,0.002678,0.000431,2.285218
9351000,0.0324,0.013523,0.002678,0.000431,2.169923
9352000,0.0324,0.013523,0.002678,0.000431,2.253015
9353000,0.0324,0.013523,0.002678,0.000431,2.213291
9354000,0.0324,0.013523,0.002678,0.000431,2.289331
9355000,0.0324,0.013523,0.002678,0.000431,2.217639
9356000,0.0324,0.013523,0.002678,0.000431,2.243731
9357000,0.0324,0.013523,0.002678,0.000431,2.323650
9358000,0.0324,0.013523,0.002678,0.000431,2.207179
9359000,0.0324,0.013523,0.002678,0.000431,2.212115
9360000,0.0324,0.013523,0.002678,0.000431,2.295796
9361000,0.0324,0.013523,0.002678,0.000431,2.260302
9362000,0.0324,0.013523,0.002678,0.000431,2.157700
9363000,0.0324,0.013523,0.002678,0.000431,2.110219
9364000,0.0324,0.013523,0.002678,0.000431,2.244671
9365000,0.0324,0.013523,0.002678,0.000431,2.044520
9366000,0.0324,0.013523,0.002678,0.000431,2.117975
9367000,0.0324,0.013523,0.002678,0.000431,2.232330
9368000,0.0324,0.013523,0.002678,0.000431,2.243260
9369000,0.0324,0.013523,0.002678,0.000431,2.195191
9370000,0.0324,0.013523,0.002678,0.000431,2.145359
9371000,0.0324,0.013523,0.002678,0.000431,2.172391
9372000,0.0324,0.013523,0.002678,0.000431,2.195779
9373000,0.0324,0.013523,0.002678,0.000431,2.129023
9374000,0.0324,0.013523,0.002678,0.000431,2.233623
9375000,0.0324,0.013523,0.002678,0.000431,2.101169
9376000,0.0324,0.013523,0.002678,0.000431,2.068496
9377000,0.0324,0.013523,0.002678,0.000431,2.054158
9378000,0.0324,0.013523,0.002678,0.000431,2.072845
9379000,0.0324,0.013523,0.002678,0.000431,2.115742
9380000,0.0324,0.013523,0.002678,0.000431,2.109631
9381000,0.0324,0.013523,0.002678,0.000431,2.119033
9382000,0.0324,0.013523,0.002678,0.000431,2.123617
9383000,0.0324,0.013523,0.002678,0.000431,2.102814
9384000,0.0324,0.013523,0.002678,0.000431,2.184379
9385000,0.0324,0.013523,0.002678,0.000431,2.147828
9386000,0.0324,0.013523,0.002678,0.000431,2.080484
9387000,0.0324,0.013523,0.002678,0.000431,2.077663
9388000,0.0324,0.013523,0.002678,0.000431,1.989164
9389000,0.0324,0.013523,0.002678,0.000431,2.072022
9390000,0.0324,0.013523,0.002678,0.000431,2.040407
9391000,0.0324,0.013523,0.002678,0.000431,2.118210
9392000,0.0324,0.013523,0.002678,0.000431,2.043463
9393000,0.0324,0.013523,0.002678,0.000431,2.012905
9394000,0.0324,0.013523,0.002678,0.000431,2.047106
9395000,0.0324,0.013523,0.002678,0.000431,2.190843
9396000,0.0324,0.013523,0.002678,0.000431,2.095645
9397000,0.0324,0.013523,0.002678,0.000431,2.096703
9398000,0.0324,0.013523,0.002678,0.000431,2.106458
9399000,0.0324,0.013523,0.002678,0.000431,2.120208
9400000,0.0324,0.013523,0.002678,0.000431,2.181441
9401000,0.0324,0.013523,0.002678,0.000431,2.210353
9402000,0.0324,0.013523,0.002678,0.000431,2.164164
9403000,0.0324,0.013523,0.002678,0.000431,2.182263
9404000,0.0324,0.013523,0.002678,0.000431,2.208355
9405000,0.0324,0.013523,0.002678,0.000431,2.126555
9406000,0.0324,0.013523,0.002678,0.000431,2.093177
9407000,0.0324,0.013523,0.002678,0.000431,2.252428
9408000,0.0324,0.013523,0.002678,0.000431,2.251135
9409000,0.0324,0.013523,0.002678,0.000431,2.163694
9410000,0.0324,0.013523,0.002678,0.000431,2.383942
9411000,0.0324,0.013523,0.002678,0.000431,2.211998
9412000,0.0324,0.013523,0.002678,0.000431,2.213056
9413000,0.0324,0.013523,0.002678,0.000431,2.289449
9414000,0.0324,0.013523,0.002678,0.000431,2.396165
9415000,0.0324,0.013523,0.002678,0.000431,2.269939
9416000,0.0324,0.013523,0.002678,0.000431,2.154292
9417000,0.0324,0.013523,0.002678,0.000431,2.286041
9418000,0.0324,0.013523,0.002678,0.000431,2.278284
9419000,0.0324,0.013523,0.002678,0.000431,2.121501
9420000,0.0324,0.013523,0.002678,0.000431,2.334110
9421000,0.0324,0.013523,0.002678,0.000431,2.352092
9422000,0.0324,0.013523,0.002678,0.000431,2.227277
9423000,0.0324,0.013523,0.002678,0.000431,2.384529
9424000,0.0324,0.013523,0.002678,0.000431,2.355147
9425000,0.0324,0.013523,0.002678,0.000431,2.231978
9426000,0.0324,0.013523,0.002678,0.000431,2.364902
9427000,0.0324,0.013523,0.002678,0.000431,2.204711
9428000,0.0324,0.013523,0.002678,0.000431,2.409093
9429000,0.0324,0.013523,0.002678,0.000431,2.317303
9430000,0.0324,0.013523,0.002678,0.000431,2.375715
9431000,0.0324,0.013523,0.002678,0.000431,2.430600
9432000,0.0324,0.013523,0.002678,0.000431,2.326118
9433000,0.0324,0.013523,0.002678,0.000431,2.158288
9434000,0.0324,0.013523,0.002678,0.000431,2.090474
9435000,0.0324,0.013523,0.002678,0.000431,2.256659
9436000,0.0324,0.013523,0.002678,0.000431,2.331407
9437000,0.0324,0.013523,0.002678,0.000431,2.238559
9438000,0.0324,0.013523,0.002678,0.000431,2.125615
9439000,0.0324,0.013523,0.002678,0.000431,2.311779
9440000,0.0324,0.013523,0.002678,0.000431,2.264768
9441000,0.0324,0.013523,0.002678,0.000431,2.273583
9442000,0.0324,0.013523,0.002678,0.000431,2.105165
9443000,0.0324,0.013523,0.002678,0.000431,2.354912
9444000,0.0324,0.013523,0.002678,0.000431,2.119973
9445000,0.0324,0.013523,0.002678,0.000431,2.218109
9446000,0.0324,0.013523,0.002678,0.000431,2.058976
9447000,0.0324,0.013523,0.002678,0.000431,2.139953
9448000,0.0324,0.013523,0.002678,0.000431,2.205181
9449000,0.0324,0.013523,0.002678,0.000431,2.002093
9450000,0.0324,0.013523,0.002678,0.000431,2.121501
9451000,0.0324,0.013523,0.002678,0.000431,1.999507
9452000,0.0324,0.013523,0.002678,0.000431,2.094470
9453000,0.0324,0.013523,0.002678,0.000431,2.129493
9454000,0.0324,0.013523,0.002678,0.000431,2.221283
9455000,0.0324,0.013523,0.002678,0.000431,1.935454
9456000,0.0324,0.013523,0.002678,0.000431,2.106458
9457000,0.0324,0.013523,0.002678,0.000431,2.105988
9458000,0.0324,0.013523,0.002678,0.000431,2.222340
9459000,0.0324,0.013523,0.002678,0.000431,2.206357
9460000,0.0324,0.013523,0.002678,0.000431,2.029594
9461000,0.0324,0.013523,0.002678,0.000431,2.252193
9462000,0.0324,0.013523,0.002678,0.000431,2.202361
9463000,0.0324,0.013523,0.002678,0.000431,2.120914
9464000,0.0324,0.013523,0.002678,0.000431,2.148415
9465000,0.0324,0.013523,0.002678,0.000431,2.075195
9466000,0.0324,0.013523,0.002678,0.000431,2.097878
9467000,0.0324,0.013523,0.002678,0.000431,1.995981
9468000,0.0324,0.013523,0.002678,0.000431,2.192488
9469000,0.0324,0.013523,0.002678,0.000431,2.214584
9470000,0.0324,0.013523,0.002678,0.000431,2.171921
9471000,0.0324,0.013523,0.002678,0.000431,2.084480
9472000,0.0324,0.013523,0.002678,0.000431,2.022307
9473000,0.0324,0.013523,0.002678,0.000431,1.964719
9474000,0.0324,0.013523,0.002678,0.000431,2.133489
9475000,0.0324,0.013523,0.002678,0.000431,2.032297
9476000,0.0324,0.013523,0.002678,0.000431,2.118798
9477000,0.0324,0.013523,0.002678,0.000431,2.097878
9478000,0.0324,0.013523,0.002678,0.000431,2.183204
9479000,0.0324,0.013523,0.002678,0.000431,2.059916
9480000,0.0324,0.013523,0.002678,0.000431,1.894202
9481000,0.0324,0.013523,0.002678,0.000431,2.059799
9482000,0.0324,0.013523,0.002678,0.000431,2.246786
9483000,0.0324,0.013523,0.002678,0.000431,2.129493
9484000,0.0324,0.013523,0.002678,0.000431,2.104460
9485000,0.0324,0.013523,0.002678,0.000431,1.979292
9486000,0.0324,0.013523,0.002678,0.000431,2.265356
9487000,0.0324,0.013523,0.002678,0.000431,2.103990
9488000,0.0324,0.013523,0.002678,0.000431,2.031710
9489000,0.0324,0.013523,0.002678,0.000431,1.976236
9490000,0.0324,0.013523,0.002678,0.000431,2.041465
9491000,0.0324,0.013523,0.002678,0.000431,2.056156
9492000,0.0324,0.013523,0.002678,0.000431,2.040877
9493000,0.0324,0.013523,0.002678,0.000431,2.013493
9494000,0.0324,0.013523,0.002678,0.000431,1.906425
9495000,0.0324,0.013523,0.002678,0.000431,1.889383
9496000,0.0324,0.013523,0.002678,0.000431,2.030299
9497000,0.0324,0.013523,0.002678,0.000431,2.021485
9498000,0.0324,0.013523,0.002678,0.000431,1.989635
9499000,0.0324,0.013523,0.002678,0.000431,2.050632
9500000,0.0324,0.013523,0.002678,0.000431,1.943211
9501000,0.0324,0.013523,0.002678,0.000431,2.136075
9502000,0.0324,0.013523,0.002678,0.000431,2.014903
9503000,0.0324,0.013523,0.002678,0.000431,2.100816
9504000,0.0324,0.013523,0.002678,0.000431,1.931576
9505000,0.0324,0.013523,0.002678,0.000431,2.153351
9506000,0.0324,0.013523,0.002678,0.000431,2.065205
9507000,0.0324,0.013523,0.002678,0.000431,1.962133
9508000,0.0324,0.013523,0.002678,0.000431,1.828621
9509000,0.0324,0.013523,0.002678,0.000431,1.850481
9510000,0.0324,0.013523,0.002678,0.000431,1.897963
9511000,0.0324,0.013523,0.002678,0.000431,2.155937
9512000,0.0324,0.013523,0.002678,0.000431,2.090826
9513000,0.0324,0.013523,0.002678,0.000431,2.025951
9514000,0.0324,0.013523,0.002678,0.000431,2.116565
9515000,0.0324,0.013523,0.002678,0.000431,2.016784
9516000,0.0324,0.013523,0.002678,0.000431,2.064970
9517000,0.0324,0.013523,0.002678,0.000431,1.947795
9518000,0.0324,0.013523,0.002678,0.000431,2.025598
9519000,0.0324,0.013523,0.002678,0.000431,1.955316
9520000,0.0324,0.013523,0.002678,0.000431,1.904074
9521000,0.0324,0.013523,0.002678,0.000431,1.938510
9522000,0.0324,0.013523,0.002678,0.000431,1.828856
9523000,0.0324,0.013523,0.002678,0.000431,1.782432
9524000,0.0324,0.013523,0.002678,0.000431,1.707449
9525000,0.0324,0.013523,0.002678,0.000431,1.781375
9526000,0.0324,0.013523,0.002678,0.000431,1.809111
9527000,0.0324,0.013523,0.002678,0.000431,1.713678
9528000,0.0324,0.013523,0.002678,0.000431,1.666785
9529000,0.0324,0.013523,0.002678,0.000431,1.520227
9530000,0.0324,0.013523,0.002678,0.000431,1.669253
9531000,0.0324,0.013523,0.002678,0.000431,1.738242
9532000,0.0324,0.013523,0.002678,0.000431,1.714384
9533000,0.0324,0.013523,0.002678,0.000431,1.659851
9534000,0.0324,0.013523,0.002678,0.000431,1.899373
9535000,0.0324,0.013523,0.002678,0.000431,1.792422
9536000,0.0324,0.013523,0.002678,0.000431,1.657500
9537000,0.0324,0.013523,0.002678,0.000431,1.768682
9538000,0.0324,0.013523,0.002678,0.000431,1.754931
9539000,0.0324,0.013523,0.002678,0.000431,1.678655
9540000,0.0324,0.013523,0.002678,0.000431,1.738124
9541000,0.0324,0.013523,0.002678,0.000431,1.901841
9542000,0.0324,0.013523,0.002678,0.000431,1.885387
9543000,0.0324,0.013523,0.002678,0.000431,1.767036
9544000,0.0324,0.013523,0.002678,0.000431,2.123852
9545000,0.0324,0.013523,0.002678,0.000431,1.870226
9546000,0.0324,0.013523,0.002678,0.000431,1.881156
9547000,0.0324,0.013523,0.002678,0.000431,2.002445
9548000,0.0324,0.013523,0.002678,0.000431,1.955904
9549000,0.0324,0.013523,0.002678,0.000431,1.990340
9550000,0.0324,0.013523,0.002678,0.000431,1.913476
9551000,0.0324,0.013523,0.002678,0.000431,1.809229
9552000,0.0324,0.013523,0.002678,0.000431,1.710975
9553000,0.0324,0.013523,0.002678,0.000431,1.763745
9554000,0.0324,0.013523,0.002678,0.000431,1.812402
9555000,0.0324,0.013523,0.002678,0.000431,1.850834
9556000,0.0324,0.013523,0.002678,0.000431,1.733541
9557000,0.0324,0.013523,0.002678,0.000431,1.566886
9558000,0.0324,0.013523,0.002678,0.000431,1.750230
9559000,0.0324,0.013523,0.002678,0.000431,1.799827
9560000,0.0324,0.013523,0.002678,0.000431,1.868110
9561000,0.0324,0.013523,0.002678,0.000431,1.880686
9562000,0.0324,0.013523,0.002678,0.000431,1.877983
9563000,0.0324,0.013523,0.002678,0.000431,1.822980
9564000,0.0324,0.013523,0.002678,0.000431,1.926169
9565000,0.0324,0.013523,0.002678,0.000431,1.849071
9566000,0.0324,0.013523,0.002678,0.000431,1.846133
9567000,0.0324,0.013523,0.002678,0.000431,1.921233
9568000,0.0324,0.013523,0.002678,0.000431,1.744471
9569000,0.0324,0.013523,0.002678,0.000431,1.861999
9570000,0.0324,0.013523,0.002678,0.000431,1.827681
9571000,0.0324,0.013523,0.002678,0.000431,1.987637
9572000,0.0324,0.013523,0.002678,0.000431,1.972358
9573000,0.0324,0.013523,0.002678,0.000431,1.913946
9574000,0.0324,0.013523,0.002678,0.000431,1.965306
9575000,0.0324,0.013523,0.002678,0.000431,1.831324
9576000,0.0324,0.013523,0.002678,0.000431,1.933221
9577000,0.0324,0.013523,0.002678,0.000431,1.880098
9578000,0.0324,0.013523,0.002678,0.000431,1.951908
9579000,0.0324,0.013523,0.002678,0.000431,1.754931
9580000,0.0324,0.013523,0.002678,0.000431,1.643162
9581000,0.0324,0.013523,0.002678,0.000431,1.669135
9582000,0.0324,0.013523,0.002678,0.000431,1.667842
9583000,0.0324,0.013523,0.002678,0.000431,1.767389
9584000,0.0324,0.013523,0.002678,0.000431,1.742003
9585000,0.0324,0.013523,0.002678,0.000431,1.717087
9586000,0.0324,0.013523,0.002678,0.000431,1.608373
9587000,0.0324,0.013523,0.002678,0.000431,1.649978
9588000,0.0324,0.013523,0.002678,0.000431,1.686647
9589000,0.0324,0.013523,0.002678,0.000431,1.749054
9590000,0.0324,0.013523,0.002678,0.000431,1.715794
9591000,0.0324,0.013523,0.002678,0.000431,1.665609
9592000,0.0324,0.013523,0.002678,0.000431,1.734834
9593000,0.0324,0.013523,0.002678,0.000431,1.695462
9594000,0.0324,0.013523,0.002678,0.000431,1.768447
9595000,0.0324,0.013523,0.002678,0.000431,1.757751
9596000,0.0324,0.013523,0.002678,0.000431,1.759867
9597000,0.0324,0.013523,0.002678,0.000431,1.792775
9598000,0.0324,0.013523,0.002678,0.000431,1.736596
9599000,0.0324,0.013523,0.002678,0.000431,1.826505
9600000,0.0324,0.013523,0.002678,0.000431,1.765861
9601000,0.0324,0.013523,0.002678,0.000431,1.576406
9602000,0.0324,0.013523,0.002678,0.000431,1.626120
9603000,0.0324,0.013523,0.002678,0.000431,1.732483
9604000,0.0324,0.013523,0.002678,0.000431,1.835673
9605000,0.0324,0.013523,0.002678,0.000431,1.955316
9606000,0.0324,0.013523,0.002678,0.000431,1.927110
9607000,0.0324,0.013523,0.002678,0.000431,1.820864
9608000,0.0324,0.013523,0.002678,0.000431,1.696872
9609000,0.0324,0.013523,0.002678,0.000431,1.765038
9610000,0.0324,0.013523,0.002678,0.000431,1.927227
9611000,0.0324,0.013523,0.002678,0.000431,2.030299
9612000,0.0324,0.013523,0.002678,0.000431,2.183674
9613000,0.0324,0.013523,0.002678,0.000431,1.946737
9614000,0.0324,0.013523,0.002678,0.000431,2.128200
9615000,0.0324,0.013523,0.002678,0.000431,2.114214
9616000,0.0324,0.013523,0.002678,0.000431,2.090826
9617000,0.0324,0.013523,0.002678,0.000431,1.958842
9618000,0.0324,0.013523,0.002678,0.000431,2.335403
9619000,0.0324,0.013523,0.002678,0.000431,2.320947
9620000,0.0324,0.013523,0.002678,0.000431,2.534143
9621000,0.0324,0.013523,0.002678,0.000431,2.341044
9622000,0.0324,0.013523,0.002678,0.000431,2.248314
9623000,0.0324,0.013523,0.002678,0.000431,2.213761
9624000,0.0324,0.013523,0.002678,0.000431,2.598666
9625000,0.0324,0.013523,0.002678,0.000431,2.330819
9626000,0.0324,0.013523,0.002678,0.000431,2.435889
9627000,0.0324,0.013523,0.002678,0.000431,2.300379
9628000,0.0324,0.013523,0.002678,0.000431,2.188022
9629000,0.0324,0.013523,0.002678,0.000431,2.304963
9630000,0.0324,0.013523,0.002678,0.000431,2.282515
9631000,0.0324,0.013523,0.002678,0.000431,2.354207
9632000,0.0324,0.013523,0.002678,0.000431,2.260067
9633000,0.0324,0.013523,0.002678,0.000431,2.294620
9634000,0.0324,0.013523,0.002678,0.000431,2.365607
9635000,0.0324,0.013523,0.002678,0.000431,2.319889
9636000,0.0324,0.013523,0.002678,0.000431,2.331289
9637000,0.0324,0.013523,0.002678,0.000431,2.328233
9638000,0.0324,0.013523,0.002678,0.000431,2.325530
9639000,0.0324,0.013523,0.002678,0.000431,2.303082
9640000,0.0324,0.013523,0.002678,0.000431,2.084362
9641000,0.0324,0.013523,0.002678,0.000431,2.047223
9642000,0.0324,0.013523,0.002678,0.000431,2.138660
9643000,0.0324,0.013523,0.002678,0.000431,2.098701
9644000,0.0324,0.013523,0.002678,0.000431,2.021602
9645000,0.0324,0.013523,0.002678,0.000431,2.097996
9646000,0.0324,0.013523,0.002678,0.000431,2.152294
9647000,0.0324,0.013523,0.002678,0.000431,2.133254
9648000,0.0324,0.013523,0.002678,0.000431,2.210823
9649000,0.0324,0.013523,0.002678,0.000431,2.273113
9650000,0.0324,0.013523,0.002678,0.000431,2.275346
9651000,0.0324,0.013523,0.002678,0.000431,2.256541
9652000,0.0324,0.013523,0.002678,0.000431,1.990457
9653000,0.0324,0.013523,0.002678,0.000431,2.319536
9654000,0.0324,0.013523,0.002678,0.000431,2.120443
9655000,0.0324,0.013523,0.002678,0.000431,2.345157
9656000,0.0324,0.013523,0.002678,0.000431,2.218815
9657000,0.0324,0.013523,0.002678,0.000431,2.362081
9658000,0.0324,0.013523,0.002678,0.000431,2.242320
9659000,0.0324,0.013523,0.002678,0.000431,2.298146
9660000,0.0324,0.013523,0.002678,0.000431,2.179913
9661000,0.0324,0.013523,0.002678,0.000431,2.040642
9662000,0.0324,0.013523,0.002678,0.000431,2.038526
9663000,0.0324,0.013523,0.002678,0.000431,1.966952
9664000,0.0324,0.013523,0.002678,0.000431,2.082247
9665000,0.0324,0.013523,0.002678,0.000431,2.013728
9666000,0.0324,0.013523,0.002678,0.000431,2.312249
9667000,0.0324,0.013523,0.002678,0.000431,2.074960
9668000,0.0324,0.013523,0.002678,0.000431,2.183556
9669000,0.0324,0.013523,0.002678,0.000431,2.124087
9670000,0.0324,0.013523,0.002678,0.000431,2.191666
9671000,0.0324,0.013523,0.002678,0.000431,2.107163
9672000,0.0324,0.013523,0.002678,0.000431,2.116095
9673000,0.0324,0.013523,0.002678,0.000431,1.995629
9674000,0.0324,0.013523,0.002678,0.000431,2.176504
9675000,0.0324,0.013523,0.002678,0.000431,1.973651
9676000,0.0324,0.013523,0.002678,0.000431,2.015961
9677000,0.0324,0.013523,0.002678,0.000431,2.341514
9678000,0.0324,0.013523,0.002678,0.000431,1.907482
9679000,0.0324,0.013523,0.002678,0.000431,1.988577
9680000,0.0324,0.013523,0.002678,0.000431,1.865055
9681000,0.0324,0.013523,0.002678,0.000431,2.279224
9682000,0.0324,0.013523,0.002678,0.000431,2.279812
9683000,0.0324,0.013523,0.002678,0.000431,1.979997
9684000,0.0324,0.013523,0.002678,0.000431,2.025246
9685000,0.0324,0.013523,0.002678,0.000431,2.238677
9686000,0.0324,0.013523,0.002678,0.000431,2.079074
9687000,0.0324,0.013523,0.002678,0.000431,1.871989
9688000,0.0324,0.013523,0.002678,0.000431,2.149943
9689000,0.0324,0.013523,0.002678,0.000431,1.955904
9690000,0.0324,0.013523,0.002678,0.000431,2.170628
9691000,0.0324,0.013523,0.002678,0.000431,1.932398
9692000,0.0324,0.013523,0.002678,0.000431,1.885035
9693000,0.0324,0.013523,0.002678,0.000431,2.086360
9694000,0.0324,0.013523,0.002678,0.000431,2.148768
9695000,0.0324,0.013523,0.002678,0.000431,2.109748
9696000,0.0324,0.013523,0.002678,0.000431,2.081894
9697000,0.0324,0.013523,0.002678,0.000431,2.193428
9698000,0.0324,0.013523,0.002678,0.000431,2.067321
9699000,0.0324,0.013523,0.002678,0.000431,2.134429
9700000,0.0324,0.013523,0.002678,0.000431,1.881274
9701000,0.0324,0.013523,0.002678,0.000431,1.843430
9702000,0.0324,0.013523,0.002678,0.000431,2.029124
9703000,0.0324,0.013523,0.002678,0.000431,2.076253
9704000,0.0324,0.013523,0.002678,0.000431,1.807819
9705000,0.0324,0.013523,0.002678,0.000431,1.868346
9706000,0.0324,0.013523,0.002678,0.000431,1.946032
9707000,0.0324,0.013523,0.002678,0.000431,1.799944
9708000,0.0324,0.013523,0.002678,0.000431,1.733306
9709000,0.0324,0.013523,0.002678,0.000431,1.914534
9710000,0.0324,0.013523,0.002678,0.000431,2.145947
9711000,0.0324,0.013523,0.002678,0.000431,2.024423
9712000,0.0324,0.013523,0.002678,0.000431,1.989635
9713000,0.0324,0.013523,0.002678,0.000431,1.954259
9714000,0.0324,0.013523,0.002678,0.000431,2.023248
9715000,0.0324,0.013523,0.002678,0.000431,1.795831
9716000,0.0324,0.013523,0.002678,0.000431,2.169453
9717000,0.0324,0.013523,0.002678,0.000431,2.011142
9718000,0.0324,0.013523,0.002678,0.000431,2.109631
9719000,0.0324,0.013523,0.002678,0.000431,1.943446
9720000,0.0324,0.013523,0.002678,0.000431,1.965776
9721000,0.0324,0.013523,0.002678,0.000431,2.056156
9722000,0.0324,0.013523,0.002678,0.000431,1.874575
9723000,0.0324,0.013523,0.002678,0.000431,1.946972
9724000,0.0324,0.013523,0.002678,0.000431,1.875280
9725000,0.0324,0.013523,0.002678,0.000431,1.983993
9726000,0.0324,0.013523,0.002678,0.000431,1.902429
9727000,0.0324,0.013523,0.002678,0.000431,1.915944
9728000,0.0324,0.013523,0.002678,0.000431,1.940038
9729000,0.0324,0.013523,0.002678,0.000431,1.942858
9730000,0.0324,0.013523,0.002678,0.000431,1.707920
9731000,0.0324,0.013523,0.002678,0.000431,1.533743
9732000,0.0324,0.013523,0.002678,0.000431,1.972946
9733000,0.0324,0.013523,0.002678,0.000431,1.870461
9734000,0.0324,0.013523,0.002678,0.000431,1.635052
9735000,0.0324,0.013523,0.002678,0.000431,1.591449
9736000,0.0324,0.013523,0.002678,0.000431,1.773500
9737000,0.0324,0.013523,0.002678,0.000431,1.954964
9738000,0.0324,0.013523,0.002678,0.000431,1.652094
9739000,0.0324,0.013523,0.002678,0.000431,1.533155
9740000,0.0324,0.013523,0.002678,0.000431,1.737067
9741000,0.0324,0.013523,0.002678,0.000431,1.772678
9742000,0.0324,0.013523,0.002678,0.000431,1.712738
9743000,0.0324,0.013523,0.002678,0.000431,1.703218
9744000,0.0324,0.013523,0.002678,0.000431,1.617423
9745000,0.0324,0.013523,0.002678,0.000431,1.791365
9746000,0.0324,0.013523,0.002678,0.000431,1.867405
9747000,0.0324,0.013523,0.002678,0.000431,1.733071
9748000,0.0324,0.013523,0.002678,0.000431,1.621771
9749000,0.0324,0.013523,0.002678,0.000431,1.550314
9750000,0.0324,0.013523,0.002678,0.000431,1.727547
9751000,0.0324,0.013523,0.002678,0.000431,1.626237
9752000,0.0324,0.013523,0.002678,0.000431,1.570294
9753000,0.0324,0.013523,0.002678,0.000431,1.504948
9754000,0.0324,0.013523,0.002678,0.000431,1.555250
9755000,0.0324,0.013523,0.002678,0.000431,1.572174
9756000,0.0324,0.013523,0.002678,0.000431,1.731543
9757000,0.0324,0.013523,0.002678,0.000431,1.678890
9758000,0.0324,0.013523,0.002678,0.000431,1.377548
9759000,0.0324,0.013523,0.002678,0.000431,1.486144
9760000,0.0324,0.013523,0.002678,0.000431,1.514821
9761000,0.0324,0.013523,0.002678,0.000431,1.554663
9762000,0.0324,0.013523,0.002678,0.000431,1.484263
9763000,0.0324,0.013523,0.002678,0.000431,1.483676
9764000,0.0324,0.013523,0.002678,0.000431,1.446889
9765000,0.0324,0.013523,0.002678,0.000431,1.400231
9766000,0.0324,0.013523,0.002678,0.000431,1.461933
9767000,0.0324,0.013523,0.002678,0.000431,1.364737
9768000,0.0324,0.013523,0.002678,0.000431,1.471805
9769000,0.0324,0.013523,0.002678,0.000431,1.448652
9770000,0.0324,0.013523,0.002678,0.000431,1.507887
9771000,0.0324,0.013523,0.002678,0.000431,1.432316
9772000,0.0324,0.013523,0.002678,0.000431,1.341584
9773000,0.0324,0.013523,0.002678,0.000431,1.340762
9774000,0.0324,0.013523,0.002678,0.000431,1.454529
9775000,0.0324,0.013523,0.002678,0.000431,1.420093
9776000,0.0324,0.013523,0.002678,0.000431,1.328656
9777000,0.0324,0.013523,0.002678,0.000431,1.345463
9778000,0.0324,0.013523,0.002678,0.000431,1.231930
9779000,0.0324,0.013523,0.002678,0.000431,1.211128
9780000,0.0324,0.013523,0.002678,0.000431,1.382249
9781000,0.0324,0.013523,0.002678,0.000431,1.320312
9782000,0.0324,0.013523,0.002678,0.000431,1.250030
9783000,0.0324,0.013523,0.002678,0.000431,1.247914
9784000,0.0324,0.013523,0.002678,0.000431,1.374845
9785000,0.0324,0.013523,0.002678,0.000431,1.364620
9786000,0.0324,0.013523,0.002678,0.000431,1.183509
9787000,0.0324,0.013523,0.002678,0.000431,1.304093
9788000,0.0324,0.013523,0.002678,0.000431,1.255436
9789000,0.0324,0.013523,0.002678,0.000431,1.326893
9790000,0.0324,0.013523,0.002678,0.000431,1.245211
9791000,0.0324,0.013523,0.002678,0.000431,1.329949
9792000,0.0324,0.013523,0.002678,0.000431,1.297394
9793000,0.0324,0.013523,0.002678,0.000431,1.187857
9794000,0.0324,0.013523,0.002678,0.000431,1.228757
9795000,0.0324,0.013523,0.002678,0.000431,1.329009
9796000,0.0324,0.013523,0.002678,0.000431,1.347931
9797000,0.0324,0.013523,0.002678,0.000431,1.241920
9798000,0.0324,0.013523,0.002678,0.000431,1.342172
9799000,0.0324,0.013523,0.002678,0.000431,1.502363
9800000,0.0324,0.013523,0.002678,0.000431,1.376608
9801000,0.0324,0.013523,0.002678,0.000431,1.495429
9802000,0.0324,0.013523,0.002678,0.000431,1.403169
9803000,0.0324,0.013523,0.002678,0.000431,1.288579
9804000,0.0324,0.013523,0.002678,0.000431,1.511883
9805000,0.0324,0.013523,0.002678,0.000431,1.439015
9806000,0.0324,0.013523,0.002678,0.000431,1.323367
9807000,0.0324,0.013523,0.002678,0.000431,1.493783
9808000,0.0324,0.013523,0.002678,0.000431,1.312907
9809000,0.0324,0.013523,0.002678,0.000431,1.514351
9810000,0.0324,0.013523,0.002678,0.000431,1.537856
9811000,0.0324,0.013523,0.002678,0.000431,1.414569
9812000,0.0324,0.013523,0.002678,0.000431,1.396000
9813000,0.0324,0.013523,0.002678,0.000431,1.527396
9814000,0.0324,0.013523,0.002678,0.000431,1.468280
9815000,0.0324,0.013523,0.002678,0.000431,1.488142
9816000,0.0324,0.013523,0.002678,0.000431,1.452766
9817000,0.0324,0.013523,0.002678,0.000431,1.419975
9818000,0.0324,0.013523,0.002678,0.000431,1.412689
9819000,0.0324,0.013523,0.002678,0.000431,1.435019
9820000,0.0324,0.013523,0.002678,0.000431,1.400936
9821000,0.0324,0.013523,0.002678,0.000431,1.394589
9822000,0.0324,0.013523,0.002678,0.000431,1.278119
9823000,0.0324,0.013523,0.002678,0.000431,1.375080
9824000,0.0324,0.013523,0.002678,0.000431,1.372612
9825000,0.0324,0.013523,0.002678,0.000431,1.349576
9826000,0.0324,0.013523,0.002678,0.000431,1.304915
9827000,0.0324,0.013523,0.002678,0.000431,1.475331
9828000,0.0324,0.013523,0.002678,0.000431,1.455234
9829000,0.0324,0.013523,0.002678,0.000431,1.731308
9830000,0.0324,0.013523,0.002678,0.000431,1.582164
9831000,0.0324,0.013523,0.002678,0.000431,1.571704
9832000,0.0324,0.013523,0.002678,0.000431,1.683591
9833000,0.0324,0.013523,0.002678,0.000431,1.683121
9834000,0.0324,0.013523,0.002678,0.000431,1.700045
9835000,0.0324,0.013523,0.002678,0.000431,1.490727
9836000,0.0324,0.013523,0.002678,0.000431,1.484851
9837000,0.0324,0.013523,0.002678,0.000431,1.453471
9838000,0.0324,0.013523,0.002678,0.000431,1.559834
9839000,0.0324,0.013523,0.002678,0.000431,1.461816
9840000,0.0324,0.013523,0.002678,0.000431,1.554075
9841000,0.0324,0.013523,0.002678,0.000431,1.531510
9842000,0.0324,0.013523,0.002678,0.000431,1.565946
9843000,0.0324,0.013523,0.002678,0.000431,1.633877
9844000,0.0324,0.013523,0.002678,0.000431,1.517524
9845000,0.0324,0.013523,0.002678,0.000431,1.560069
9846000,0.0324,0.013523,0.002678,0.000431,1.601439
9847000,0.0324,0.013523,0.002678,0.000431,1.608021
9848000,0.0324,0.013523,0.002678,0.000431,1.783020
9849000,0.0324,0.013523,0.002678,0.000431,1.547141
9850000,0.0324,0.013523,0.002678,0.000431,1.533038
9851000,0.0324,0.013523,0.002678,0.000431,1.414334
9852000,0.0324,0.013523,0.002678,0.000431,1.412219
9853000,0.0324,0.013523,0.002678,0.000431,1.375315
9854000,0.0324,0.013523,0.002678,0.000431,1.469572
9855000,0.0324,0.013523,0.002678,0.000431,1.574525
9856000,0.0324,0.013523,0.002678,0.000431,1.574172
9857000,0.0324,0.013523,0.002678,0.000431,1.595328
9858000,0.0324,0.013523,0.002678,0.000431,1.523048
9859000,0.0324,0.013523,0.002678,0.000431,1.258257
9860000,0.0324,0.013523,0.002678,0.000431,1.564065
9861000,0.0324,0.013523,0.002678,0.000431,1.724256
9862000,0.0324,0.013523,0.002678,0.000431,1.577933
9863000,0.0324,0.013523,0.002678,0.000431,1.772090
9864000,0.0324,0.013523,0.002678,0.000431,1.444421
9865000,0.0324,0.013523,0.002678,0.000431,1.556191
9866000,0.0324,0.013523,0.002678,0.000431,1.716499
9867000,0.0324,0.013523,0.002678,0.000431,1.665727
9868000,0.0324,0.013523,0.002678,0.000431,1.645159
9869000,0.0324,0.013523,0.002678,0.000431,1.626590
9870000,0.0324,0.013523,0.002678,0.000431,1.517641
9871000,0.0324,0.013523,0.002678,0.000431,1.880098
9872000,0.0324,0.013523,0.002678,0.000431,1.902194
9873000,0.0324,0.013523,0.002678,0.000431,1.763745
9874000,0.0324,0.013523,0.002678,0.000431,1.752345
9875000,0.0324,0.013523,0.002678,0.000431,1.777261
9876000,0.0324,0.013523,0.002678,0.000431,1.837436
9877000,0.0324,0.013523,0.002678,0.000431,1.759632
9878000,0.0324,0.013523,0.002678,0.000431,1.824743
9879000,0.0324,0.013523,0.002678,0.000431,1.819806
9880000,0.0324,0.013523,0.002678,0.000431,1.673954
9881000,0.0324,0.013523,0.002678,0.000431,1.780905
9882000,0.0324,0.013523,0.002678,0.000431,1.592742
9883000,0.0324,0.013523,0.002678,0.000431,1.834380
9884000,0.0324,0.013523,0.002678,0.000431,1.664434
9885000,0.0324,0.013523,0.002678,0.000431,1.686177
9886000,0.0324,0.013523,0.002678,0.000431,1.707802
9887000,0.0324,0.013523,0.002678,0.000431,1.746939
9888000,0.0324,0.013523,0.002678,0.000431,1.674777
9889000,0.0324,0.013523,0.002678,0.000431,1.704629
9890000,0.0324,0.013523,0.002678,0.000431,1.717087
9891000,0.0324,0.013523,0.002678,0.000431,1.789367
9892000,0.0324,0.013523,0.002678,0.000431,1.685824
9893000,0.0324,0.013523,0.002678,0.000431,1.817926
9894000,0.0324,0.013523,0.002678,0.000431,1.731778
9895000,0.0324,0.013523,0.002678,0.000431,1.697224
9896000,0.0324,0.013523,0.002678,0.000431,1.775733
9897000,0.0324,0.013523,0.002678,0.000431,1.794068
9898000,0.0324,0.013523,0.002678,0.000431,1.940390
9899000,0.0324,0.013523,0.002678,0.000431,1.775028
9900000,0.0324,0.013523,0.002678,0.000431,1.865525
9901000,0.0324,0.013523,0.002678,0.000431,1.857180
9902000,0.0324,0.013523,0.002678,0.000431,2.044403
9903000,0.0324,0.013523,0.002678,0.000431,1.872929
9904000,0.0324,0.013523,0.002678,0.000431,1.881039
9905000,0.0324,0.013523,0.002678,0.000431,1.987049
9906000,0.0324,0.013523,0.002678,0.000431,2.044050
9907000,0.0324,0.013523,0.002678,0.000431,2.004561
9908000,0.0324,0.013523,0.002678,0.000431,1.951320
9909000,0.0324,0.013523,0.002678,0.000431,2.078251
9910000,0.0324,0.013523,0.002678,0.000431,1.937805
9911000,0.0324,0.013523,0.002678,0.000431,1.947442
9912000,0.0324,0.013523,0.002678,0.000431,1.981173
9913000,0.0324,0.013523,0.002678,0.000431,2.039231
9914000,0.0324,0.013523,0.002678,0.000431,1.924759
9915000,0.0324,0.013523,0.002678,0.000431,2.016196
9916000,0.0324,0.013523,0.002678,0.000431,1.873164
9917000,0.0324,0.013523,0.002678,0.000431,1.975766
9918000,0.0324,0.013523,0.002678,0.000431,1.863527
9919000,0.0324,0.013523,0.002678,0.000431,1.902429
9920000,0.0324,0.013523,0.002678,0.000431,2.061327
9921000,0.0324,0.013523,0.002678,0.000431,1.953553
9922000,0.0324,0.013523,0.002678,0.000431,1.958725
9923000,0.0324,0.013523,0.002678,0.000431,1.858238
9924000,0.0324,0.013523,0.002678,0.000431,1.905602
9925000,0.0324,0.013523,0.002678,0.000431,1.997627
9926000,0.0324,0.013523,0.002678,0.000431,1.956727
9927000,0.0324,0.013523,0.002678,0.000431,2.025246
9928000,0.0324,0.013523,0.002678,0.000431,2.070024
9929000,0.0324,0.013523,0.002678,0.000431,2.107750
9930000,0.0324,0.013523,0.002678,0.000431,2.008557
9931000,0.0324,0.013523,0.002678,0.000431,2.198365
9932000,0.0324,0.013523,0.002678,0.000431,2.090709
9933000,0.0324,0.013523,0.002678,0.000431,2.066381
9934000,0.0324,0.013523,0.002678,0.000431,1.976354
9935000,0.0324,0.013523,0.002678,0.000431,1.783373
9936000,0.0324,0.013523,0.002678,0.000431,1.937217
9937000,0.0324,0.013523,0.002678,0.000431,1.913829
9938000,0.0324,0.013523,0.002678,0.000431,2.118798
9939000,0.0324,0.013523,0.002678,0.000431,2.060269
9940000,0.0324,0.013523,0.002678,0.000431,2.072139
9941000,0.0324,0.013523,0.002678,0.000431,1.968244
9942000,0.0324,0.013523,0.002678,0.000431,1.870696
9943000,0.0324,0.013523,0.002678,0.000431,1.979410
9944000,0.0324,0.013523,0.002678,0.000431,1.992103
9945000,0.0324,0.013523,0.002678,0.000431,1.861411
9946000,0.0324,0.013523,0.002678,0.000431,1.867170
9947000,0.0324,0.013523,0.002678,0.000431,1.890793
9948000,0.0324,0.013523,0.002678,0.000431,2.070494
9949000,0.0324,0.013523,0.002678,0.000431,1.878570
9950000,0.0324,0.013523,0.002678,0.000431,1.989635
9951000,0.0324,0.013523,0.002678,0.000431,1.949440
9952000,0.0324,0.013523,0.002678,0.000431,1.890911
9953000,0.0324,0.013523,0.002678,0.000431,1.938862
9954000,0.0324,0.013523,0.002678,0.000431,1.887268
9955000,0.0324,0.013523,0.002678,0.000431,1.958842
9956000,0.0324,0.013523,0.002678,0.000431,1.936982
9957000,0.0324,0.013523,0.002678,0.000431,1.967657
9958000,0.0324,0.013523,0.002678,0.000431,1.894672
9959000,0.0324,0.013523,0.002678,0.000431,1.671838
9960000,0.0324,0.013523,0.002678,0.000431,1.628941
9961000,0.0324,0.013523,0.002678,0.000431,2.133019
9962000,0.0324,0.013523,0.002678,0.000431,1.737772
9963000,0.0324,0.013523,0.002678,0.000431,1.678420
9964000,0.0324,0.013523,0.002678,0.000431,1.713443
9965000,0.0324,0.013523,0.002678,0.000431,1.851186
9966000,0.0324,0.013523,0.002678,0.000431,1.703336
9967000,0.0324,0.013523,0.002678,0.000431,1.852009
9968000,0.0324,0.013523,0.002678,0.000431,1.943093
9969000,0.0324,0.013523,0.002678,0.000431,1.828621
9970000,0.0324,0.013523,0.002678,0.000431,1.773500
9971000,0.0324,0.013523,0.002678,0.000431,1.785606
9972000,0.0324,0.013523,0.002678,0.000431,2.075195
9973000,0.0324,0.013523,0.002678,0.000431,1.992455
9974000,0.0324,0.013523,0.002678,0.000431,2.032297
9975000,0.0324,0.013523,0.002678,0.000431,1.908775
9976000,0.0324,0.013523,0.002678,0.000431,1.877513
9977000,0.0324,0.013523,0.002678,0.000431,1.779142
9978000,0.0324,0.013523,0.002678,0.000431,1.817691
9979000,0.0324,0.013523,0.002678,0.000431,1.814283
9980000,0.0324,0.013523,0.002678,0.000431,1.958255
9981000,0.0324,0.013523,0.002678,0.000431,1.937805
9982000,0.0324,0.013523,0.002678,0.000431,1.814047
9983000,0.0324,0.013523,0.002678,0.000431,1.953083
9984000,0.0324,0.013523,0.002678,0.000431,2.046518
9985000,0.0324,0.013523,0.002678,0.000431,2.011847
9986000,0.0324,0.013523,0.002678,0.000431,1.963896
9987000,0.0324,0.013523,0.002678,0.000431,1.899961
9988000,0.0324,0.013523,0.002678,0.000431,2.056273
9989000,0.0324,0.013523,0.002678,0.000431,2.011495
9990000,0.0324,0.013523,0.002678,0.000431,1.996099
9991000,0.0324,0.013523,0.002678,0.000431,2.101756
9992000,0.0324,0.013523,0.002678,0.000431,2.007969
9993000,0.0324,0.013523,0.002678,0.000431,2.065793
9994000,0.0324,0.013523,0.002678,0.000431,2.023130
9995000,0.0324,0.013523,0.002678,0.000431,1.962486
9996000,0.0324,0.013523,0.002678,0.000431,1.888913
9997000,0.0324,0.013523,0.002678,0.000431,2.061914
9998000,0.0324,0.013523,0.002678,0.000431,1.966599
9999000,0.0324,0.013523,0.002678,0.000431,1.915592
