Cycle,Area(mm^2),PeakDynamic(W),SubthresholdLeakage(W),GateLeakage(W),RunTimeDynamic(W)
7000000,0.0324,0.013523,0.002678,0.000431,1.903604
7001000,0.0324,0.013523,0.002678,0.000431,2.019604
7002000,0.0324,0.013523,0.002678,0.000431,1.895847
7003000,0.0324,0.013523,0.002678,0.000431,1.717204
7004000,0.0324,0.013523,0.002678,0.000431,1.738242
7005000,0.0324,0.013523,0.002678,0.000431,1.812520
7006000,0.0324,0.013523,0.002678,0.000431,1.923819
7007000,0.0324,0.013523,0.002678,0.000431,1.850011
7008000,0.0324,0.013523,0.002678,0.000431,1.940155
7009000,0.0324,0.013523,0.002678,0.000431,1.860941
7010000,0.0324,0.013523,0.002678,0.000431,1.821804
7011000,0.0324,0.013523,0.002678,0.000431,1.707920
7012000,0.0324,0.013523,0.002678,0.000431,1.743060
7013000,0.0324,0.013523,0.002678,0.000431,1.858238
7014000,0.0324,0.013523,0.002678,0.000431,1.994218
7015000,0.0324,0.013523,0.002678,0.000431,1.934279
7016000,0.0324,0.013523,0.002678,0.000431,1.970948
7017000,0.0324,0.013523,0.002678,0.000431,2.071434
7018000,0.0324,0.013523,0.002678,0.000431,2.020897
7019000,0.0324,0.013523,0.002678,0.000431,2.059329
7020000,0.0324,0.013523,0.002678,0.000431,1.977647
7021000,0.0324,0.013523,0.002678,0.000431,1.920763
7022000,0.0324,0.013523,0.002678,0.000431,1.941331
7023000,0.0324,0.013523,0.002678,0.000431,1.997509
7024000,0.0324,0.013523,0.002678,0.000431,1.880804
7025000,0.0324,0.013523,0.002678,0.000431,2.009849
7026000,0.0324,0.013523,0.002678,0.000431,2.013258
7027000,0.0324,0.013523,0.002678,0.000431,2.017724
7028000,0.0324,0.013523,0.002678,0.000431,1.977177
7029000,0.0324,0.013523,0.002678,0.000431,1.892086
7030000,0.0324,0.013523,0.002678,0.000431,1.896787
7031000,0.0324,0.013523,0.002678,0.000431,1.959547
7032000,0.0324,0.013523,0.002678,0.000431,2.001270
7033000,0.0324,0.013523,0.002678,0.000431,1.806996
7034000,0.0324,0.013523,0.002678,0.000431,1.794773
7035000,0.0324,0.013523,0.002678,0.000431,1.713561
7036000,0.0324,0.013523,0.002678,0.000431,1.865407
7037000,0.0324,0.013523,0.002678,0.000431,1.703336
7038000,0.0324,0.013523,0.002678,0.000431,1.757516
7039000,0.0324,0.013523,0.002678,0.000431,1.948030
7040000,0.0324,0.013523,0.002678,0.000431,1.854242
7041000,0.0324,0.013523,0.002678,0.000431,1.902899
7042000,0.0324,0.013523,0.002678,0.000431,1.841549
7043000,0.0324,0.013523,0.002678,0.000431,1.799004
7044000,0.0324,0.013523,0.002678,0.000431,1.832499
7045000,0.0324,0.013523,0.002678,0.000431,1.930635
7046000,0.0324,0.013523,0.002678,0.000431,1.829326
7047000,0.0324,0.013523,0.002678,0.000431,1.989635
7048000,0.0324,0.013523,0.002678,0.000431,1.867523
7049000,0.0324,0.013523,0.002678,0.000431,1.802177
7050000,0.0324,0.013523,0.002678,0.000431,1.770092
7051000,0.0324,0.013523,0.002678,0.000431,1.777379
7052000,0.0324,0.013523,0.002678,0.000431,1.941683
7053000,0.0324,0.013523,0.002678,0.000431,1.911831
7054000,0.0324,0.013523,0.002678,0.000431,2.024070
7055000,0.0324,0.013523,0.002678,0.000431,1.820041
7056000,0.0324,0.013523,0.002678,0.000431,1.753050
7057000,0.0324,0.013523,0.002678,0.000431,1.940978
7058000,0.0324,0.013523,0.002678,0.000431,1.967892
7059000,0.0324,0.013523,0.002678,0.000431,1.822980
7060000,0.0324,0.013523,0.002678,0.000431,1.887268
7061000,0.0324,0.013523,0.002678,0.000431,1.991045
7062000,0.0324,0.013523,0.002678,0.000431,1.872812
7063000,0.0324,0.013523,0.002678,0.000431,1.852009
7064000,0.0324,0.013523,0.002678,0.000431,2.008557
7065000,0.0324,0.013523,0.002678,0.000431,1.988577
7066000,0.0324,0.013523,0.002678,0.000431,1.868110
7067000,0.0324,0.013523,0.002678,0.000431,1.878218
7068000,0.0324,0.013523,0.002678,0.000431,2.001387
7069000,0.0324,0.013523,0.002678,0.000431,2.000917
7070000,0.0324,0.013523,0.002678,0.000431,1.893497
7071000,0.0324,0.013523,0.002678,0.000431,2.036411
7072000,0.0324,0.013523,0.002678,0.000431,1.975766
7073000,0.0324,0.013523,0.002678,0.000431,1.877395
7074000,0.0324,0.013523,0.002678,0.000431,1.879276
7075000,0.0324,0.013523,0.002678,0.000431,2.061562
7076000,0.0324,0.013523,0.002678,0.000431,1.876102
7077000,0.0324,0.013523,0.002678,0.000431,1.972123
7078000,0.0324,0.013523,0.002678,0.000431,1.887385
7079000,0.0324,0.013523,0.002678,0.000431,1.934044
7080000,0.0324,0.013523,0.002678,0.000431,1.975061
7081000,0.0324,0.013523,0.002678,0.000431,1.984463
7082000,0.0324,0.013523,0.002678,0.000431,1.912889
7083000,0.0324,0.013523,0.002678,0.000431,1.979997
7084000,0.0324,0.013523,0.002678,0.000431,1.830736
7085000,0.0324,0.013523,0.002678,0.000431,2.134429
7086000,0.0324,0.013523,0.002678,0.000431,1.833910
7087000,0.0324,0.013523,0.002678,0.000431,2.031357
7088000,0.0324,0.013523,0.002678,0.000431,1.898785
7089000,0.0324,0.013523,0.002678,0.000431,1.905014
7090000,0.0324,0.013523,0.002678,0.000431,1.797711
7091000,0.0324,0.013523,0.002678,0.000431,1.756459
7092000,0.0324,0.013523,0.002678,0.000431,1.651153
7093000,0.0324,0.013523,0.002678,0.000431,1.829561
7094000,0.0324,0.013523,0.002678,0.000431,1.767859
7095000,0.0324,0.013523,0.002678,0.000431,1.766801
7096000,0.0324,0.013523,0.002678,0.000431,1.639401
7097000,0.0324,0.013523,0.002678,0.000431,1.758457
7098000,0.0324,0.013523,0.002678,0.000431,1.907600
7099000,0.0324,0.013523,0.002678,0.000431,1.852244
7100000,0.0324,0.013523,0.002678,0.000431,1.901136
7101000,0.0324,0.013523,0.002678,0.000431,1.945562
7102000,0.0324,0.013523,0.002678,0.000431,1.884447
7103000,0.0324,0.013523,0.002678,0.000431,1.903134
7104000,0.0324,0.013523,0.002678,0.000431,1.850364
7105000,0.0324,0.013523,0.002678,0.000431,1.847661
7106000,0.0324,0.013523,0.002678,0.000431,1.765626
7107000,0.0324,0.013523,0.002678,0.000431,1.730250
7108000,0.0324,0.013523,0.002678,0.000431,1.915944
7109000,0.0324,0.013523,0.002678,0.000431,1.765273
7110000,0.0324,0.013523,0.002678,0.000431,1.925817
7111000,0.0324,0.013523,0.002678,0.000431,1.785371
7112000,0.0324,0.013523,0.002678,0.000431,2.019604
7113000,0.0324,0.013523,0.002678,0.000431,1.888325
7114000,0.0324,0.013523,0.002678,0.000431,1.960840
7115000,0.0324,0.013523,0.002678,0.000431,1.996921
7116000,0.0324,0.013523,0.002678,0.000431,1.922644
7117000,0.0324,0.013523,0.002678,0.000431,2.072374
7118000,0.0324,0.013523,0.002678,0.000431,2.089416
7119000,0.0324,0.013523,0.002678,0.000431,1.937217
7120000,0.0324,0.013523,0.002678,0.000431,1.933574
7121000,0.0324,0.013523,0.002678,0.000431,1.802412
7122000,0.0324,0.013523,0.002678,0.000431,1.881039
7123000,0.0324,0.013523,0.002678,0.000431,1.871401
7124000,0.0324,0.013523,0.002678,0.000431,1.832382
7125000,0.0324,0.013523,0.002678,0.000431,1.777966
7126000,0.0324,0.013523,0.002678,0.000431,1.644689
7127000,0.0324,0.013523,0.002678,0.000431,1.800884
7128000,0.0324,0.013523,0.002678,0.000431,2.045578
7129000,0.0324,0.013523,0.002678,0.000431,1.913006
7130000,0.0324,0.013523,0.002678,0.000431,1.860824
7131000,0.0324,0.013523,0.002678,0.000431,1.624357
7132000,0.0324,0.013523,0.002678,0.000431,2.088123
7133000,0.0324,0.013523,0.002678,0.000431,2.035823
7134000,0.0324,0.013523,0.002678,0.000431,1.978940
7135000,0.0324,0.013523,0.002678,0.000431,1.901488
7136000,0.0324,0.013523,0.002678,0.000431,1.945091
7137000,0.0324,0.013523,0.002678,0.000431,2.051337
7138000,0.0324,0.013523,0.002678,0.000431,2.019487
7139000,0.0324,0.013523,0.002678,0.000431,2.085890
7140000,0.0324,0.013523,0.002678,0.000431,2.037116
7141000,0.0324,0.013523,0.002678,0.000431,1.934984
7142000,0.0324,0.013523,0.002678,0.000431,1.861294
7143000,0.0324,0.013523,0.002678,0.000431,1.865642
7144000,0.0324,0.013523,0.002678,0.000431,2.011612
7145000,0.0324,0.013523,0.002678,0.000431,1.996451
7146000,0.0324,0.013523,0.002678,0.000431,1.851304
7147000,0.0324,0.013523,0.002678,0.000431,1.745999
7148000,0.0324,0.013523,0.002678,0.000431,1.777849
7149000,0.0324,0.013523,0.002678,0.000431,1.979292
7150000,0.0324,0.013523,0.002678,0.000431,1.899843
7151000,0.0324,0.013523,0.002678,0.000431,1.786781
7152000,0.0324,0.013523,0.002678,0.000431,1.730132
7153000,0.0324,0.013523,0.002678,0.000431,1.814635
7154000,0.0324,0.013523,0.002678,0.000431,1.794303
7155000,0.0324,0.013523,0.002678,0.000431,1.954141
7156000,0.0324,0.013523,0.002678,0.000431,1.954024
7157000,0.0324,0.013523,0.002678,0.000431,1.973063
7158000,0.0324,0.013523,0.002678,0.000431,1.893967
7159000,0.0324,0.013523,0.002678,0.000431,1.934514
7160000,0.0324,0.013523,0.002678,0.000431,1.899020
7161000,0.0324,0.013523,0.002678,0.000431,1.894319
7162000,0.0324,0.013523,0.002678,0.000431,1.859061
7163000,0.0324,0.013523,0.002678,0.000431,2.002445
7164000,0.0324,0.013523,0.002678,0.000431,1.954729
7165000,0.0324,0.013523,0.002678,0.000431,1.836495
7166000,0.0324,0.013523,0.002678,0.000431,1.765156
7167000,0.0324,0.013523,0.002678,0.000431,1.886680
7168000,0.0324,0.013523,0.002678,0.000431,2.019722
7169000,0.0324,0.013523,0.002678,0.000431,1.877630
7170000,0.0324,0.013523,0.002678,0.000431,1.840961
7171000,0.0324,0.013523,0.002678,0.000431,1.943211
7172000,0.0324,0.013523,0.002678,0.000431,2.005971
7173000,0.0324,0.013523,0.002678,0.000431,1.844957
7174000,0.0324,0.013523,0.002678,0.000431,1.969067
7175000,0.0324,0.013523,0.002678,0.000431,1.979410
7176000,0.0324,0.013523,0.002678,0.000431,1.883154
7177000,0.0324,0.013523,0.002678,0.000431,1.823920
7178000,0.0324,0.013523,0.002678,0.000431,1.748467
7179000,0.0324,0.013523,0.002678,0.000431,1.879041
7180000,0.0324,0.013523,0.002678,0.000431,1.689233
7181000,0.0324,0.013523,0.002678,0.000431,1.896552
7182000,0.0324,0.013523,0.002678,0.000431,1.849423
7183000,0.0324,0.013523,0.002678,0.000431,1.721200
7184000,0.0324,0.013523,0.002678,0.000431,1.852949
7185000,0.0324,0.013523,0.002678,0.000431,1.921116
7186000,0.0324,0.013523,0.002678,0.000431,1.897610
7187000,0.0324,0.013523,0.002678,0.000431,1.903721
7188000,0.0324,0.013523,0.002678,0.000431,1.837906
7189000,0.0324,0.013523,0.002678,0.000431,1.861294
7190000,0.0324,0.013523,0.002678,0.000431,1.818396
7191000,0.0324,0.013523,0.002678,0.000431,1.817103
7192000,0.0324,0.013523,0.002678,0.000431,1.875397
7193000,0.0324,0.013523,0.002678,0.000431,1.938392
7194000,0.0324,0.013523,0.002678,0.000431,2.015491
7195000,0.0324,0.013523,0.002678,0.000431,1.762688
7196000,0.0324,0.013523,0.002678,0.000431,1.860589
7197000,0.0324,0.013523,0.002678,0.000431,1.788074
7198000,0.0324,0.013523,0.002678,0.000431,1.697812
7199000,0.0324,0.013523,0.002678,0.000431,1.708860
7200000,0.0324,0.013523,0.002678,0.000431,1.755871
7201000,0.0324,0.013523,0.002678,0.000431,1.675834
7202000,0.0324,0.013523,0.002678,0.000431,1.708272
7203000,0.0324,0.013523,0.002678,0.000431,1.766096
7204000,0.0324,0.013523,0.002678,0.000431,1.799004
7205000,0.0324,0.013523,0.002678,0.000431,1.658558
7206000,0.0324,0.013523,0.002678,0.000431,1.593800
7207000,0.0324,0.013523,0.002678,0.000431,1.683591
7208000,0.0324,0.013523,0.002678,0.000431,1.743766
7209000,0.0324,0.013523,0.002678,0.000431,1.738359
7210000,0.0324,0.013523,0.002678,0.000431,1.746704
7211000,0.0324,0.013523,0.002678,0.000431,1.780787
7212000,0.0324,0.013523,0.002678,0.000431,1.620479
7213000,0.0324,0.013523,0.002678,0.000431,1.856945
7214000,0.0324,0.013523,0.002678,0.000431,1.682651
7215000,0.0324,0.013523,0.002678,0.000431,1.637285
7216000,0.0324,0.013523,0.002678,0.000431,1.827563
7217000,0.0324,0.013523,0.002678,0.000431,1.789484
7218000,0.0324,0.013523,0.002678,0.000431,1.794890
7219000,0.0324,0.013523,0.002678,0.000431,1.829444
7220000,0.0324,0.013523,0.002678,0.000431,1.618716
7221000,0.0324,0.013523,0.002678,0.000431,1.735891
7222000,0.0324,0.013523,0.002678,0.000431,1.639871
7223000,0.0324,0.013523,0.002678,0.000431,1.686059
7224000,0.0324,0.013523,0.002678,0.000431,1.687822
7225000,0.0324,0.013523,0.002678,0.000431,1.580166
7226000,0.0324,0.013523,0.002678,0.000431,1.705687
7227000,0.0324,0.013523,0.002678,0.000431,1.571117
7228000,0.0324,0.013523,0.002678,0.000431,1.716264
7229000,0.0324,0.013523,0.002678,0.000431,1.612017
7230000,0.0324,0.013523,0.002678,0.000431,1.705687
7231000,0.0324,0.013523,0.002678,0.000431,1.592624
7232000,0.0324,0.013523,0.002678,0.000431,1.465576
7233000,0.0324,0.013523,0.002678,0.000431,1.692053
7234000,0.0324,0.013523,0.002678,0.000431,1.662671
7235000,0.0324,0.013523,0.002678,0.000431,1.728722
7236000,0.0324,0.013523,0.002678,0.000431,1.684766
7237000,0.0324,0.013523,0.002678,0.000431,1.654797
7238000,0.0324,0.013523,0.002678,0.000431,1.707920
7239000,0.0324,0.013523,0.002678,0.000431,1.775263
7240000,0.0324,0.013523,0.002678,0.000431,1.643867
7241000,0.0324,0.013523,0.002678,0.000431,1.670546
7242000,0.0324,0.013523,0.002678,0.000431,1.718497
7243000,0.0324,0.013523,0.002678,0.000431,1.758222
7244000,0.0324,0.013523,0.002678,0.000431,1.789249
7245000,0.0324,0.013523,0.002678,0.000431,1.818161
7246000,0.0324,0.013523,0.002678,0.000431,1.750700
7247000,0.0324,0.013523,0.002678,0.000431,1.724844
7248000,0.0324,0.013523,0.002678,0.000431,1.759044
7249000,0.0324,0.013523,0.002678,0.000431,1.683709
7250000,0.0324,0.013523,0.002678,0.000431,1.740592
7251000,0.0324,0.013523,0.002678,0.000431,1.717204
7252000,0.0324,0.013523,0.002678,0.000431,1.766331
7253000,0.0324,0.013523,0.002678,0.000431,1.723786
7254000,0.0324,0.013523,0.002678,0.000431,1.670428
7255000,0.0324,0.013523,0.002678,0.000431,1.696049
7256000,0.0324,0.013523,0.002678,0.000431,1.616248
7257000,0.0324,0.013523,0.002678,0.000431,1.671838
7258000,0.0324,0.013523,0.002678,0.000431,1.581577
7259000,0.0324,0.013523,0.002678,0.000431,1.629763
7260000,0.0324,0.013523,0.002678,0.000431,1.592037
7261000,0.0324,0.013523,0.002678,0.000431,1.717087
7262000,0.0324,0.013523,0.002678,0.000431,1.691113
7263000,0.0324,0.013523,0.002678,0.000431,1.710153
7264000,0.0324,0.013523,0.002678,0.000431,1.641516
7265000,0.0324,0.013523,0.002678,0.000431,1.681593
7266000,0.0324,0.013523,0.002678,0.000431,1.736244
7267000,0.0324,0.013523,0.002678,0.000431,1.689468
7268000,0.0324,0.013523,0.002678,0.000431,1.553370
7269000,0.0324,0.013523,0.002678,0.000431,1.481913
7270000,0.0324,0.013523,0.002678,0.000431,1.675247
7271000,0.0324,0.013523,0.002678,0.000431,1.668548
7272000,0.0324,0.013523,0.002678,0.000431,1.507181
7273000,0.0324,0.013523,0.002678,0.000431,1.555133
7274000,0.0324,0.013523,0.002678,0.000431,1.613662
7275000,0.0324,0.013523,0.002678,0.000431,1.557013
7276000,0.0324,0.013523,0.002678,0.000431,1.604260
7277000,0.0324,0.013523,0.002678,0.000431,1.635992
7278000,0.0324,0.013523,0.002678,0.000431,1.471100
7279000,0.0324,0.013523,0.002678,0.000431,1.407282
7280000,0.0324,0.013523,0.002678,0.000431,1.496369
7281000,0.0324,0.013523,0.002678,0.000431,1.523048
7282000,0.0324,0.013523,0.002678,0.000431,1.684766
7283000,0.0324,0.013523,0.002678,0.000431,1.595563
7284000,0.0324,0.013523,0.002678,0.000431,1.753050
7285000,0.0324,0.013523,0.002678,0.000431,1.434784
7286000,0.0324,0.013523,0.002678,0.000431,1.617423
7287000,0.0324,0.013523,0.002678,0.000431,1.797829
7288000,0.0324,0.013523,0.002678,0.000431,1.788426
7289000,0.0324,0.013523,0.002678,0.000431,1.785958
7290000,0.0324,0.013523,0.002678,0.000431,1.875162
7291000,0.0324,0.013523,0.002678,0.000431,1.766801
7292000,0.0324,0.013523,0.002678,0.000431,1.765861
7293000,0.0324,0.013523,0.002678,0.000431,1.675482
7294000,0.0324,0.013523,0.002678,0.000431,1.678067
7295000,0.0324,0.013523,0.002678,0.000431,1.799827
7296000,0.0324,0.013523,0.002678,0.000431,1.732836
7297000,0.0324,0.013523,0.002678,0.000431,1.683591
7298000,0.0324,0.013523,0.002678,0.000431,1.630468
7299000,0.0324,0.013523,0.002678,0.000431,1.790072
7300000,0.0324,0.013523,0.002678,0.000431,1.830501
7301000,0.0324,0.013523,0.002678,0.000431,1.810757
7302000,0.0324,0.013523,0.002678,0.000431,1.872577
7303000,0.0324,0.013523,0.002678,0.000431,1.794420
7304000,0.0324,0.013523,0.002678,0.000431,1.880333
7305000,0.0324,0.013523,0.002678,0.000431,1.806643
7306000,0.0324,0.013523,0.002678,0.000431,1.773970
7307000,0.0324,0.013523,0.002678,0.000431,1.744706
7308000,0.0324,0.013523,0.002678,0.000431,1.743766
7309000,0.0324,0.013523,0.002678,0.000431,1.694169
7310000,0.0324,0.013523,0.002678,0.000431,1.581342
7311000,0.0324,0.013523,0.002678,0.000431,1.562890
7312000,0.0324,0.013523,0.002678,0.000431,1.661496
7313000,0.0324,0.013523,0.002678,0.000431,1.747644
7314000,0.0324,0.013523,0.002678,0.000431,1.666550
7315000,0.0324,0.013523,0.002678,0.000431,1.719907
7316000,0.0324,0.013523,0.002678,0.000431,1.804763
7317000,0.0324,0.013523,0.002678,0.000431,1.769739
7318000,0.0324,0.013523,0.002678,0.000431,1.814988
7319000,0.0324,0.013523,0.002678,0.000431,1.753520
7320000,0.0324,0.013523,0.002678,0.000431,1.848483
7321000,0.0324,0.013523,0.002678,0.000431,1.665139
7322000,0.0324,0.013523,0.002678,0.000431,1.658910
7323000,0.0324,0.013523,0.002678,0.000431,1.535506
7324000,0.0324,0.013523,0.002678,0.000431,1.915004
7325000,0.0324,0.013523,0.002678,0.000431,1.860824
7326000,0.0324,0.013523,0.002678,0.000431,1.851774
7327000,0.0324,0.013523,0.002678,0.000431,1.878100
7328000,0.0324,0.013523,0.002678,0.000431,1.930635
7329000,0.0324,0.013523,0.002678,0.000431,1.871401
7330000,0.0324,0.013523,0.002678,0.000431,1.681593
7331000,0.0324,0.013523,0.002678,0.000431,1.821804
7332000,0.0324,0.013523,0.002678,0.000431,1.820982
7333000,0.0324,0.013523,0.002678,0.000431,1.648215
7334000,0.0324,0.013523,0.002678,0.000431,1.760220
7335000,0.0324,0.013523,0.002678,0.000431,1.849423
7336000,0.0324,0.013523,0.002678,0.000431,1.714266
7337000,0.0324,0.013523,0.002678,0.000431,1.801354
7338000,0.0324,0.013523,0.002678,0.000431,1.701338
7339000,0.0324,0.013523,0.002678,0.000431,1.761865
7340000,0.0324,0.013523,0.002678,0.000431,1.690290
7341000,0.0324,0.013523,0.002678,0.000431,1.655032
7342000,0.0324,0.013523,0.002678,0.000431,1.764803
7343000,0.0324,0.013523,0.002678,0.000431,1.675012
7344000,0.0324,0.013523,0.002678,0.000431,1.677832
7345000,0.0324,0.013523,0.002678,0.000431,1.622712
7346000,0.0324,0.013523,0.002678,0.000431,1.697460
7347000,0.0324,0.013523,0.002678,0.000431,1.694874
7348000,0.0324,0.013523,0.002678,0.000431,1.701808
7349000,0.0324,0.013523,0.002678,0.000431,1.668900
7350000,0.0324,0.013523,0.002678,0.000431,1.676540
7351000,0.0324,0.013523,0.002678,0.000431,1.745529
7352000,0.0324,0.013523,0.002678,0.000431,1.670311
7353000,0.0324,0.013523,0.002678,0.000431,1.619656
7354000,0.0324,0.013523,0.002678,0.000431,1.631291
7355000,0.0324,0.013523,0.002678,0.000431,1.520462
7356000,0.0324,0.013523,0.002678,0.000431,1.693111
7357000,0.0324,0.013523,0.002678,0.000431,1.607668
7358000,0.0324,0.013523,0.002678,0.000431,1.614015
7359000,0.0324,0.013523,0.002678,0.000431,1.592272
7360000,0.0324,0.013523,0.002678,0.000431,1.607786
7361000,0.0324,0.013523,0.002678,0.000431,1.570412
7362000,0.0324,0.013523,0.002678,0.000431,1.565123
7363000,0.0324,0.013523,0.002678,0.000431,1.511412
7364000,0.0324,0.013523,0.002678,0.000431,1.438075
7365000,0.0324,0.013523,0.002678,0.000431,1.526339
7366000,0.0324,0.013523,0.002678,0.000431,1.574055
7367000,0.0324,0.013523,0.002678,0.000431,1.566416
7368000,0.0324,0.013523,0.002678,0.000431,1.575583
7369000,0.0324,0.013523,0.002678,0.000431,1.476271
7370000,0.0324,0.013523,0.002678,0.000431,1.678302
7371000,0.0324,0.013523,0.002678,0.000431,1.480267
7372000,0.0324,0.013523,0.002678,0.000431,1.540089
7373000,0.0324,0.013523,0.002678,0.000431,1.587101
7374000,0.0324,0.013523,0.002678,0.000431,1.547611
7375000,0.0324,0.013523,0.002678,0.000431,1.613309
7376000,0.0324,0.013523,0.002678,0.000431,1.612252
7377000,0.0324,0.013523,0.002678,0.000431,1.682298
7378000,0.0324,0.013523,0.002678,0.000431,1.701926
7379000,0.0324,0.013523,0.002678,0.000431,1.594505
7380000,0.0324,0.013523,0.002678,0.000431,1.848366
7381000,0.0324,0.013523,0.002678,0.000431,1.741415
7382000,0.0324,0.013523,0.002678,0.000431,1.810992
7383000,0.0324,0.013523,0.002678,0.000431,1.629646
7384000,0.0324,0.013523,0.002678,0.000431,1.897845
7385000,0.0324,0.013523,0.002678,0.000431,1.827093
7386000,0.0324,0.013523,0.002678,0.000431,1.736596
7387000,0.0324,0.013523,0.002678,0.000431,1.816163
7388000,0.0324,0.013523,0.002678,0.000431,1.752228
7389000,0.0324,0.013523,0.002678,0.000431,1.903369
7390000,0.0324,0.013523,0.002678,0.000431,1.649978
7391000,0.0324,0.013523,0.002678,0.000431,1.822627
7392000,0.0324,0.013523,0.002678,0.000431,1.630116
7393000,0.0324,0.013523,0.002678,0.000431,1.855065
7394000,0.0324,0.013523,0.002678,0.000431,1.786898
7395000,0.0324,0.013523,0.002678,0.000431,1.750817
7396000,0.0324,0.013523,0.002678,0.000431,1.856358
7397000,0.0324,0.013523,0.002678,0.000431,1.813577
7398000,0.0324,0.013523,0.002678,0.000431,1.778672
7399000,0.0324,0.013523,0.002678,0.000431,1.939333
7400000,0.0324,0.013523,0.002678,0.000431,1.790542
7401000,0.0324,0.013523,0.002678,0.000431,1.781962
7402000,0.0324,0.013523,0.002678,0.000431,1.924877
7403000,0.0324,0.013523,0.002678,0.000431,1.727429
7404000,0.0324,0.013523,0.002678,0.000431,1.939215
7405000,0.0324,0.013523,0.002678,0.000431,1.979410
7406000,0.0324,0.013523,0.002678,0.000431,1.792070
7407000,0.0324,0.013523,0.002678,0.000431,2.000565
7408000,0.0324,0.013523,0.002678,0.000431,1.986931
7409000,0.0324,0.013523,0.002678,0.000431,2.141834
7410000,0.0324,0.013523,0.002678,0.000431,1.994806
7411000,0.0324,0.013523,0.002678,0.000431,2.068026
7412000,0.0324,0.013523,0.002678,0.000431,2.015608
7413000,0.0324,0.013523,0.002678,0.000431,1.925934
7414000,0.0324,0.013523,0.002678,0.000431,1.850129
7415000,0.0324,0.013523,0.002678,0.000431,2.046401
7416000,0.0324,0.013523,0.002678,0.000431,2.133959
7417000,0.0324,0.013523,0.002678,0.000431,1.944739
7418000,0.0324,0.013523,0.002678,0.000431,2.093294
7419000,0.0324,0.013523,0.002678,0.000431,2.090239
7420000,0.0324,0.013523,0.002678,0.000431,2.109278
7421000,0.0324,0.013523,0.002678,0.000431,1.957902
7422000,0.0324,0.013523,0.002678,0.000431,1.971300
7423000,0.0324,0.013523,0.002678,0.000431,1.956022
7424000,0.0324,0.013523,0.002678,0.000431,2.134312
7425000,0.0324,0.013523,0.002678,0.000431,1.940273
7426000,0.0324,0.013523,0.002678,0.000431,1.668665
7427000,0.0324,0.013523,0.002678,0.000431,1.821687
7428000,0.0324,0.013523,0.002678,0.000431,1.952143
7429000,0.0324,0.013523,0.002678,0.000431,1.924877
7430000,0.0324,0.013523,0.002678,0.000431,1.671721
7431000,0.0324,0.013523,0.002678,0.000431,1.804763
7432000,0.0324,0.013523,0.002678,0.000431,2.145124
7433000,0.0324,0.013523,0.002678,0.000431,1.967187
7434000,0.0324,0.013523,0.002678,0.000431,2.105282
7435000,0.0324,0.013523,0.002678,0.000431,2.133724
7436000,0.0324,0.013523,0.002678,0.000431,2.073785
7437000,0.0324,0.013523,0.002678,0.000431,2.085185
7438000,0.0324,0.013523,0.002678,0.000431,2.172508
7439000,0.0324,0.013523,0.002678,0.000431,1.997744
7440000,0.0324,0.013523,0.002678,0.000431,2.074725
7441000,0.0324,0.013523,0.002678,0.000431,1.854595
7442000,0.0324,0.013523,0.002678,0.000431,2.133959
7443000,0.0324,0.013523,0.002678,0.000431,1.941095
7444000,0.0324,0.013523,0.002678,0.000431,1.967187
7445000,0.0324,0.013523,0.002678,0.000431,1.859061
7446000,0.0324,0.013523,0.002678,0.000431,1.892086
7447000,0.0324,0.013523,0.002678,0.000431,1.621536
7448000,0.0324,0.013523,0.002678,0.000431,1.893967
7449000,0.0324,0.013523,0.002678,0.000431,1.995041
7450000,0.0324,0.013523,0.002678,0.000431,1.874457
7451000,0.0324,0.013523,0.002678,0.000431,1.933221
7452000,0.0324,0.013523,0.002678,0.000431,1.899726
7453000,0.0324,0.013523,0.002678,0.000431,1.967422
7454000,0.0324,0.013523,0.002678,0.000431,1.999860
7455000,0.0324,0.013523,0.002678,0.000431,1.934749
7456000,0.0324,0.013523,0.002678,0.000431,1.866700
7457000,0.0324,0.013523,0.002678,0.000431,1.915474
7458000,0.0324,0.013523,0.002678,0.000431,1.850834
7459000,0.0324,0.013523,0.002678,0.000431,1.757046
7460000,0.0324,0.013523,0.002678,0.000431,1.785018
7461000,0.0324,0.013523,0.002678,0.000431,1.913241
7462000,0.0324,0.013523,0.002678,0.000431,1.726842
7463000,0.0324,0.013523,0.002678,0.000431,2.106105
7464000,0.0324,0.013523,0.002678,0.000431,1.869051
7465000,0.0324,0.013523,0.002678,0.000431,1.851657
7466000,0.0324,0.013523,0.002678,0.000431,1.709095
7467000,0.0324,0.013523,0.002678,0.000431,1.770445
7468000,0.0324,0.013523,0.002678,0.000431,1.708507
7469000,0.0324,0.013523,0.002678,0.000431,1.871401
7470000,0.0324,0.013523,0.002678,0.000431,1.933809
7471000,0.0324,0.013523,0.002678,0.000431,1.924054
7472000,0.0324,0.013523,0.002678,0.000431,1.985404
7473000,0.0324,0.013523,0.002678,0.000431,1.855770
7474000,0.0324,0.013523,0.002678,0.000431,1.892674
7475000,0.0324,0.013523,0.002678,0.000431,1.930753
7476000,0.0324,0.013523,0.002678,0.000431,1.869051
7477000,0.0324,0.013523,0.002678,0.000431,1.924877
7478000,0.0324,0.013523,0.002678,0.000431,1.957667
7479000,0.0324,0.013523,0.002678,0.000431,1.911713
7480000,0.0324,0.013523,0.002678,0.000431,1.907365
7481000,0.0324,0.013523,0.002678,0.000431,1.839904
7482000,0.0324,0.013523,0.002678,0.000431,1.767389
7483000,0.0324,0.013523,0.002678,0.000431,1.937217
7484000,0.0324,0.013523,0.002678,0.000431,1.809934
7485000,0.0324,0.013523,0.002678,0.000431,1.819101
7486000,0.0324,0.013523,0.002678,0.000431,1.686177
7487000,0.0324,0.013523,0.002678,0.000431,1.679360
7488000,0.0324,0.013523,0.002678,0.000431,1.821217
7489000,0.0324,0.013523,0.002678,0.000431,1.821922
7490000,0.0324,0.013523,0.002678,0.000431,1.899726
7491000,0.0324,0.013523,0.002678,0.000431,1.678420
7492000,0.0324,0.013523,0.002678,0.000431,1.746586
7493000,0.0324,0.013523,0.002678,0.000431,2.000095
7494000,0.0324,0.013523,0.002678,0.000431,1.894437
7495000,0.0324,0.013523,0.002678,0.000431,2.041582
7496000,0.0324,0.013523,0.002678,0.000431,1.898785
7497000,0.0324,0.013523,0.002678,0.000431,1.798886
7498000,0.0324,0.013523,0.002678,0.000431,1.754931
7499000,0.0324,0.013523,0.002678,0.000431,1.916297
7500000,0.0324,0.013523,0.002678,0.000431,1.888208
7501000,0.0324,0.013523,0.002678,0.000431,1.954964
7502000,0.0324,0.013523,0.002678,0.000431,2.034765
7503000,0.0324,0.013523,0.002678,0.000431,2.009497
7504000,0.0324,0.013523,0.002678,0.000431,1.937687
7505000,0.0324,0.013523,0.002678,0.000431,1.981878
7506000,0.0324,0.013523,0.002678,0.000431,1.940273
7507000,0.0324,0.013523,0.002678,0.000431,1.869756
7508000,0.0324,0.013523,0.002678,0.000431,1.797241
7509000,0.0324,0.013523,0.002678,0.000431,1.729192
7510000,0.0324,0.013523,0.002678,0.000431,1.630233
7511000,0.0324,0.013523,0.002678,0.000431,1.754461
7512000,0.0324,0.013523,0.002678,0.000431,1.702278
7513000,0.0324,0.013523,0.002678,0.000431,1.977294
7514000,0.0324,0.013523,0.002678,0.000431,1.668900
7515000,0.0324,0.013523,0.002678,0.000431,1.792540
7516000,0.0324,0.013523,0.002678,0.000431,1.761983
7517000,0.0324,0.013523,0.002678,0.000431,1.874104
7518000,0.0324,0.013523,0.002678,0.000431,1.677245
7519000,0.0324,0.013523,0.002678,0.000431,1.735186
7520000,0.0324,0.013523,0.002678,0.000431,1.606493
7521000,0.0324,0.013523,0.002678,0.000431,1.573232
7522000,0.0324,0.013523,0.002678,0.000431,1.454176
7523000,0.0324,0.013523,0.002678,0.000431,1.655972
7524000,0.0324,0.013523,0.002678,0.000431,1.670311
7525000,0.0324,0.013523,0.002678,0.000431,1.608726
7526000,0.0324,0.013523,0.002678,0.000431,1.500482
7527000,0.0324,0.013523,0.002678,0.000431,1.707684
7528000,0.0324,0.013523,0.002678,0.000431,1.635875
7529000,0.0324,0.013523,0.002678,0.000431,1.655620
7530000,0.0324,0.013523,0.002678,0.000431,1.761395
7531000,0.0324,0.013523,0.002678,0.000431,1.651271
7532000,0.0324,0.013523,0.002678,0.000431,1.664787
7533000,0.0324,0.013523,0.002678,0.000431,1.669370
7534000,0.0324,0.013523,0.002678,0.000431,1.654562
7535000,0.0324,0.013523,0.002678,0.000431,1.626002
7536000,0.0324,0.013523,0.002678,0.000431,1.465106
7537000,0.0324,0.013523,0.002678,0.000431,1.646570
7538000,0.0324,0.013523,0.002678,0.000431,1.590979
7539000,0.0324,0.013523,0.002678,0.000431,1.684531
7540000,0.0324,0.013523,0.002678,0.000431,1.669723
7541000,0.0324,0.013523,0.002678,0.000431,1.693581
7542000,0.0324,0.013523,0.002678,0.000431,1.779964
7543000,0.0324,0.013523,0.002678,0.000431,1.571587
7544000,0.0324,0.013523,0.002678,0.000431,1.579579
7545000,0.0324,0.013523,0.002678,0.000431,1.674306
7546000,0.0324,0.013523,0.002678,0.000431,1.724961
7547000,0.0324,0.013523,0.002678,0.000431,1.679713
7548000,0.0324,0.013523,0.002678,0.000431,1.743178
7549000,0.0324,0.013523,0.002678,0.000431,1.694991
7550000,0.0324,0.013523,0.002678,0.000431,1.688527
7551000,0.0324,0.013523,0.002678,0.000431,1.706039
7552000,0.0324,0.013523,0.002678,0.000431,1.941566
7553000,0.0324,0.013523,0.002678,0.000431,1.635405
7554000,0.0324,0.013523,0.002678,0.000431,1.636933
7555000,0.0324,0.013523,0.002678,0.000431,1.623652
7556000,0.0324,0.013523,0.002678,0.000431,1.770209
7557000,0.0324,0.013523,0.002678,0.000431,1.649743
7558000,0.0324,0.013523,0.002678,0.000431,1.754813
7559000,0.0324,0.013523,0.002678,0.000431,1.647510
7560000,0.0324,0.013523,0.002678,0.000431,1.788661
7561000,0.0324,0.013523,0.002678,0.000431,1.695697
7562000,0.0324,0.013523,0.002678,0.000431,1.590744
7563000,0.0324,0.013523,0.002678,0.000431,1.618010
7564000,0.0324,0.013523,0.002678,0.000431,1.579814
7565000,0.0324,0.013523,0.002678,0.000431,1.601439
7566000,0.0324,0.013523,0.002678,0.000431,1.564418
7567000,0.0324,0.013523,0.002678,0.000431,1.531862
7568000,0.0324,0.013523,0.002678,0.000431,1.593565
7569000,0.0324,0.013523,0.002678,0.000431,1.582752
7570000,0.0324,0.013523,0.002678,0.000431,1.515526
7571000,0.0324,0.013523,0.002678,0.000431,1.502715
7572000,0.0324,0.013523,0.002678,0.000431,1.493548
7573000,0.0324,0.013523,0.002678,0.000431,1.457937
7574000,0.0324,0.013523,0.002678,0.000431,1.482030
7575000,0.0324,0.013523,0.002678,0.000431,1.533508
7576000,0.0324,0.013523,0.002678,0.000431,1.477682
7577000,0.0324,0.013523,0.002678,0.000431,1.421973
7578000,0.0324,0.013523,0.002678,0.000431,1.478975
7579000,0.0324,0.013523,0.002678,0.000431,1.463931
7580000,0.0324,0.013523,0.002678,0.000431,1.443481
7581000,0.0324,0.013523,0.002678,0.000431,1.498954
7582000,0.0324,0.013523,0.002678,0.000431,1.408575
7583000,0.0324,0.013523,0.002678,0.000431,1.444186
7584000,0.0324,0.013523,0.002678,0.000431,1.469690
7585000,0.0324,0.013523,0.002678,0.000431,1.588276
7586000,0.0324,0.013523,0.002678,0.000431,1.582047
7587000,0.0324,0.013523,0.002678,0.000431,1.480503
7588000,0.0324,0.013523,0.002678,0.000431,1.536328
7589000,0.0324,0.013523,0.002678,0.000431,1.644337
7590000,0.0324,0.013523,0.002678,0.000431,1.544790
7591000,0.0324,0.013523,0.002678,0.000431,1.594387
7592000,0.0324,0.013523,0.002678,0.000431,1.559011
7593000,0.0324,0.013523,0.002678,0.000431,1.597090
7594000,0.0324,0.013523,0.002678,0.000431,1.523635
7595000,0.0324,0.013523,0.002678,0.000431,1.502010
7596000,0.0324,0.013523,0.002678,0.000431,1.561832
7597000,0.0324,0.013523,0.002678,0.000431,1.527866
7598000,0.0324,0.013523,0.002678,0.000431,1.568884
7599000,0.0324,0.013523,0.002678,0.000431,1.484381
7600000,0.0324,0.013523,0.002678,0.000431,1.498954
7601000,0.0324,0.013523,0.002678,0.000431,1.693111
7602000,0.0324,0.013523,0.002678,0.000431,1.671368
7603000,0.0324,0.013523,0.002678,0.000431,1.713443
7604000,0.0324,0.013523,0.002678,0.000431,1.750230
7605000,0.0324,0.013523,0.002678,0.000431,1.715206
7606000,0.0324,0.013523,0.002678,0.000431,1.825918
7607000,0.0324,0.013523,0.002678,0.000431,1.744118
7608000,0.0324,0.013523,0.002678,0.000431,1.638578
7609000,0.0324,0.013523,0.002678,0.000431,1.845310
7610000,0.0324,0.013523,0.002678,0.000431,1.807583
7611000,0.0324,0.013523,0.002678,0.000431,1.621536
7612000,0.0324,0.013523,0.002678,0.000431,1.734481
7613000,0.0324,0.013523,0.002678,0.000431,1.801707
7614000,0.0324,0.013523,0.002678,0.000431,1.760220
7615000,0.0324,0.013523,0.002678,0.000431,1.756694
7616000,0.0324,0.013523,0.002678,0.000431,1.759749
7617000,0.0324,0.013523,0.002678,0.000431,1.797594
7618000,0.0324,0.013523,0.002678,0.000431,1.844487
7619000,0.0324,0.013523,0.002678,0.000431,1.736009
7620000,0.0324,0.013523,0.002678,0.000431,1.710975
7621000,0.0324,0.013523,0.002678,0.000431,1.867405
7622000,0.0324,0.013523,0.002678,0.000431,1.936629
7623000,0.0324,0.013523,0.002678,0.000431,1.886915
7624000,0.0324,0.013523,0.002678,0.000431,1.843900
7625000,0.0324,0.013523,0.002678,0.000431,1.890441
7626000,0.0324,0.013523,0.002678,0.000431,1.923349
7627000,0.0324,0.013523,0.002678,0.000431,2.013963
7628000,0.0324,0.013523,0.002678,0.000431,1.970478
7629000,0.0324,0.013523,0.002678,0.000431,1.928990
7630000,0.0324,0.013523,0.002678,0.000431,1.986579
7631000,0.0324,0.013523,0.002678,0.000431,1.920998
7632000,0.0324,0.013523,0.002678,0.000431,1.948500
7633000,0.0324,0.013523,0.002678,0.000431,2.150413
7634000,0.0324,0.013523,0.002678,0.000431,1.876455
7635000,0.0324,0.013523,0.002678,0.000431,2.009849
7636000,0.0324,0.013523,0.002678,0.000431,1.924406
7637000,0.0324,0.013523,0.002678,0.000431,1.791952
7638000,0.0324,0.013523,0.002678,0.000431,1.988694
7639000,0.0324,0.013523,0.002678,0.000431,1.954729
7640000,0.0324,0.013523,0.002678,0.000431,1.869991
7641000,0.0324,0.013523,0.002678,0.000431,2.011612
7642000,0.0324,0.013523,0.002678,0.000431,1.966482
7643000,0.0324,0.013523,0.002678,0.000431,1.811697
7644000,0.0324,0.013523,0.002678,0.000431,1.982935
7645000,0.0324,0.013523,0.002678,0.000431,1.915474
7646000,0.0324,0.013523,0.002678,0.000431,2.036176
7647000,0.0324,0.013523,0.002678,0.000431,1.850364
7648000,0.0324,0.013523,0.002678,0.000431,1.804880
7649000,0.0324,0.013523,0.002678,0.000431,1.753168
7650000,0.0324,0.013523,0.002678,0.000431,1.776556
7651000,0.0324,0.013523,0.002678,0.000431,1.830619
7652000,0.0324,0.013523,0.002678,0.000431,1.783608
7653000,0.0324,0.013523,0.002678,0.000431,1.904309
7654000,0.0324,0.013523,0.002678,0.000431,1.788544
7655000,0.0324,0.013523,0.002678,0.000431,1.880333
7656000,0.0324,0.013523,0.002678,0.000431,1.710505
7657000,0.0324,0.013523,0.002678,0.000431,1.733188
7658000,0.0324,0.013523,0.002678,0.000431,1.687587
7659000,0.0324,0.013523,0.002678,0.000431,1.563830
7660000,0.0324,0.013523,0.002678,0.000431,1.625532
7661000,0.0324,0.013523,0.002678,0.000431,1.588746
7662000,0.0324,0.013523,0.002678,0.000431,1.580166
7663000,0.0324,0.013523,0.002678,0.000431,1.560774
7664000,0.0324,0.013523,0.002678,0.000431,1.382837
7665000,0.0324,0.013523,0.002678,0.000431,1.353219
7666000,0.0324,0.013523,0.002678,0.000431,1.692876
7667000,0.0324,0.013523,0.002678,0.000431,1.765038
7668000,0.0324,0.013523,0.002678,0.000431,1.808289
7669000,0.0324,0.013523,0.002678,0.000431,1.815810
7670000,0.0324,0.013523,0.002678,0.000431,1.827916
7671000,0.0324,0.013523,0.002678,0.000431,1.886915
7672000,0.0324,0.013523,0.002678,0.000431,1.681241
7673000,0.0324,0.013523,0.002678,0.000431,1.702866
7674000,0.0324,0.013523,0.002678,0.000431,1.907600
7675000,0.0324,0.013523,0.002678,0.000431,1.851069
7676000,0.0324,0.013523,0.002678,0.000431,1.804880
7677000,0.0324,0.013523,0.002678,0.000431,1.836613
7678000,0.0324,0.013523,0.002678,0.000431,1.867640
7679000,0.0324,0.013523,0.002678,0.000431,1.876690
7680000,0.0324,0.013523,0.002678,0.000431,1.946502
7681000,0.0324,0.013523,0.002678,0.000431,1.803352
7682000,0.0324,0.013523,0.002678,0.000431,1.926522
7683000,0.0324,0.013523,0.002678,0.000431,1.820276
7684000,0.0324,0.013523,0.002678,0.000431,1.914652
7685000,0.0324,0.013523,0.002678,0.000431,1.889736
7686000,0.0324,0.013523,0.002678,0.000431,2.041347
7687000,0.0324,0.013523,0.002678,0.000431,2.050397
7688000,0.0324,0.013523,0.002678,0.000431,2.032297
7689000,0.0324,0.013523,0.002678,0.000431,2.005148
7690000,0.0324,0.013523,0.002678,0.000431,1.984933
7691000,0.0324,0.013523,0.002678,0.000431,2.008087
7692000,0.0324,0.013523,0.002678,0.000431,2.016901
7693000,0.0324,0.013523,0.002678,0.000431,2.010672
7694000,0.0324,0.013523,0.002678,0.000431,1.939450
7695000,0.0324,0.013523,0.002678,0.000431,2.012670
7696000,0.0324,0.013523,0.002678,0.000431,2.063677
7697000,0.0324,0.013523,0.002678,0.000431,2.076135
7698000,0.0324,0.013523,0.002678,0.000431,2.102697
7699000,0.0324,0.013523,0.002678,0.000431,1.983758
7700000,0.0324,0.013523,0.002678,0.000431,2.017019
7701000,0.0324,0.013523,0.002678,0.000431,1.713796
7702000,0.0324,0.013523,0.002678,0.000431,1.667137
7703000,0.0324,0.013523,0.002678,0.000431,1.961428
7704000,0.0324,0.013523,0.002678,0.000431,1.910538
7705000,0.0324,0.013523,0.002678,0.000431,2.086243
7706000,0.0324,0.013523,0.002678,0.000431,2.106810
7707000,0.0324,0.013523,0.002678,0.000431,2.259714
7708000,0.0324,0.013523,0.002678,0.000431,2.162519
7709000,0.0324,0.013523,0.002678,0.000431,2.151118
7710000,0.0324,0.013523,0.002678,0.000431,2.130551
7711000,0.0324,0.013523,0.002678,0.000431,2.229627
7712000,0.0324,0.013523,0.002678,0.000431,2.066968
7713000,0.0324,0.013523,0.002678,0.000431,2.122324
7714000,0.0324,0.013523,0.002678,0.000431,2.095057
7715000,0.0324,0.013523,0.002678,0.000431,2.020074
7716000,0.0324,0.013523,0.002678,0.000431,1.857886
7717000,0.0324,0.013523,0.002678,0.000431,1.888913
7718000,0.0324,0.013523,0.002678,0.000431,1.851186
7719000,0.0324,0.013523,0.002678,0.000431,1.766801
7720000,0.0324,0.013523,0.002678,0.000431,1.934984
7721000,0.0324,0.013523,0.002678,0.000431,1.956962
7722000,0.0324,0.013523,0.002678,0.000431,1.881274
7723000,0.0324,0.013523,0.002678,0.000431,1.843900
7724000,0.0324,0.013523,0.002678,0.000431,1.776203
7725000,0.0324,0.013523,0.002678,0.000431,1.668313
7726000,0.0324,0.013523,0.002678,0.000431,1.712268
7727000,0.0324,0.013523,0.002678,0.000431,1.759632
7728000,0.0324,0.013523,0.002678,0.000431,1.840139
7729000,0.0324,0.013523,0.002678,0.000431,1.886680
7730000,0.0324,0.013523,0.002678,0.000431,1.915357
7731000,0.0324,0.013523,0.002678,0.000431,1.747291
7732000,0.0324,0.013523,0.002678,0.000431,1.788191
7733000,0.0324,0.013523,0.002678,0.000431,1.649626
7734000,0.0324,0.013523,0.002678,0.000431,1.633289
7735000,0.0324,0.013523,0.002678,0.000431,1.712856
7736000,0.0324,0.013523,0.002678,0.000431,1.815458
7737000,0.0324,0.013523,0.002678,0.000431,1.833792
7738000,0.0324,0.013523,0.002678,0.000431,1.729662
7739000,0.0324,0.013523,0.002678,0.000431,1.757751
7740000,0.0324,0.013523,0.002678,0.000431,1.785253
7741000,0.0324,0.013523,0.002678,0.000431,1.732836
7742000,0.0324,0.013523,0.002678,0.000431,2.023835
7743000,0.0324,0.013523,0.002678,0.000431,1.868933
7744000,0.0324,0.013523,0.002678,0.000431,2.018194
7745000,0.0324,0.013523,0.002678,0.000431,1.956844
7746000,0.0324,0.013523,0.002678,0.000431,2.063560
7747000,0.0324,0.013523,0.002678,0.000431,1.934749
7748000,0.0324,0.013523,0.002678,0.000431,1.879041
7749000,0.0324,0.013523,0.002678,0.000431,1.878923
7750000,0.0324,0.013523,0.002678,0.000431,1.797358
7751000,0.0324,0.013523,0.002678,0.000431,2.009732
7752000,0.0324,0.013523,0.002678,0.000431,1.985286
7753000,0.0324,0.013523,0.002678,0.000431,1.989400
7754000,0.0324,0.013523,0.002678,0.000431,1.977294
7755000,0.0324,0.013523,0.002678,0.000431,1.967422
7756000,0.0324,0.013523,0.002678,0.000431,1.920058
7757000,0.0324,0.013523,0.002678,0.000431,1.819454
7758000,0.0324,0.013523,0.002678,0.000431,1.956022
7759000,0.0324,0.013523,0.002678,0.000431,1.987049
7760000,0.0324,0.013523,0.002678,0.000431,1.987284
7761000,0.0324,0.013523,0.002678,0.000431,1.811932
7762000,0.0324,0.013523,0.002678,0.000431,1.990105
7763000,0.0324,0.013523,0.002678,0.000431,1.910891
7764000,0.0324,0.013523,0.002678,0.000431,1.883389
7765000,0.0324,0.013523,0.002678,0.000431,1.742708
7766000,0.0324,0.013523,0.002678,0.000431,1.876455
7767000,0.0324,0.013523,0.002678,0.000431,1.847425
7768000,0.0324,0.013523,0.002678,0.000431,1.918295
7769000,0.0324,0.013523,0.002678,0.000431,1.902194
7770000,0.0324,0.013523,0.002678,0.000431,1.836260
7771000,0.0324,0.013523,0.002678,0.000431,1.891499
7772000,0.0324,0.013523,0.002678,0.000431,1.715206
7773000,0.0324,0.013523,0.002678,0.000431,1.755283
7774000,0.0324,0.013523,0.002678,0.000431,1.902429
7775000,0.0324,0.013523,0.002678,0.000431,1.758457
7776000,0.0324,0.013523,0.002678,0.000431,1.802530
7777000,0.0324,0.013523,0.002678,0.000431,1.745411
7778000,0.0324,0.013523,0.002678,0.000431,1.912066
7779000,0.0324,0.013523,0.002678,0.000431,1.910773
7780000,0.0324,0.013523,0.002678,0.000431,2.075430
7781000,0.0324,0.013523,0.002678,0.000431,1.992690
7782000,0.0324,0.013523,0.002678,0.000431,1.945562
7783000,0.0324,0.013523,0.002678,0.000431,1.884564
7784000,0.0324,0.013523,0.002678,0.000431,1.944151
7785000,0.0324,0.013523,0.002678,0.000431,2.076605
7786000,0.0324,0.013523,0.002678,0.000431,2.183086
7787000,0.0324,0.013523,0.002678,0.000431,1.932516
7788000,0.0324,0.013523,0.002678,0.000431,2.077076
7789000,0.0324,0.013523,0.002678,0.000431,2.035353
7790000,0.0324,0.013523,0.002678,0.000431,1.982348
7791000,0.0324,0.013523,0.002678,0.000431,2.037704
7792000,0.0324,0.013523,0.002678,0.000431,2.003503
7793000,0.0324,0.013523,0.002678,0.000431,1.851774
7794000,0.0324,0.013523,0.002678,0.000431,1.954259
7795000,0.0324,0.013523,0.002678,0.000431,2.041465
7796000,0.0324,0.013523,0.002678,0.000431,1.960017
7797000,0.0324,0.013523,0.002678,0.000431,1.919000
7798000,0.0324,0.013523,0.002678,0.000431,1.761865
7799000,0.0324,0.013523,0.002678,0.000431,1.774676
7800000,0.0324,0.013523,0.002678,0.000431,1.855652
7801000,0.0324,0.013523,0.002678,0.000431,1.839316
7802000,0.0324,0.013523,0.002678,0.000431,1.900431
7803000,0.0324,0.013523,0.002678,0.000431,1.848248
7804000,0.0324,0.013523,0.002678,0.000431,1.849776
7805000,0.0324,0.013523,0.002678,0.000431,1.837436
7806000,0.0324,0.013523,0.002678,0.000431,1.832852
7807000,0.0324,0.013523,0.002678,0.000431,1.844135
7808000,0.0324,0.013523,0.002678,0.000431,1.524223
7809000,0.0324,0.013523,0.002678,0.000431,1.705451
7810000,0.0324,0.013523,0.002678,0.000431,1.709330
7811000,0.0324,0.013523,0.002678,0.000431,1.714384
7812000,0.0324,0.013523,0.002678,0.000431,1.735069
7813000,0.0324,0.013523,0.002678,0.000431,1.648685
7814000,0.0324,0.013523,0.002678,0.000431,1.587336
7815000,0.0324,0.013523,0.002678,0.000431,1.455704
7816000,0.0324,0.013523,0.002678,0.000431,1.490022
7817000,0.0324,0.013523,0.002678,0.000431,1.561597
7818000,0.0324,0.013523,0.002678,0.000431,1.703924
7819000,0.0324,0.013523,0.002678,0.000431,1.580637
7820000,0.0324,0.013523,0.002678,0.000431,1.609313
7821000,0.0324,0.013523,0.002678,0.000431,1.689468
7822000,0.0324,0.013523,0.002678,0.000431,1.756576
7823000,0.0324,0.013523,0.002678,0.000431,1.589216
7824000,0.0324,0.013523,0.002678,0.000431,1.589804
7825000,0.0324,0.013523,0.002678,0.000431,1.656442
7826000,0.0324,0.013523,0.002678,0.000431,1.652916
7827000,0.0324,0.013523,0.002678,0.000431,1.571352
7828000,0.0324,0.013523,0.002678,0.000431,1.552900
7829000,0.0324,0.013523,0.002678,0.000431,1.439368
7830000,0.0324,0.013523,0.002678,0.000431,1.566886
7831000,0.0324,0.013523,0.002678,0.000431,1.605788
7832000,0.0324,0.013523,0.002678,0.000431,1.566181
7833000,0.0324,0.013523,0.002678,0.000431,1.640458
7834000,0.0324,0.013523,0.002678,0.000431,1.610841
7835000,0.0324,0.013523,0.002678,0.000431,1.637403
7836000,0.0324,0.013523,0.002678,0.000431,1.610254
7837000,0.0324,0.013523,0.002678,0.000431,1.742590
7838000,0.0324,0.013523,0.002678,0.000431,1.623652
7839000,0.0324,0.013523,0.002678,0.000431,1.545731
7840000,0.0324,0.013523,0.002678,0.000431,1.522813
7841000,0.0324,0.013523,0.002678,0.000431,1.540794
7842000,0.0324,0.013523,0.002678,0.000431,1.491668
7843000,0.0324,0.013523,0.002678,0.000431,1.556896
7844000,0.0324,0.013523,0.002678,0.000431,1.578991
7845000,0.0324,0.013523,0.002678,0.000431,1.469337
7846000,0.0324,0.013523,0.002678,0.000431,1.463578
7847000,0.0324,0.013523,0.002678,0.000431,1.547494
7848000,0.0324,0.013523,0.002678,0.000431,1.490727
7849000,0.0324,0.013523,0.002678,0.000431,1.580049
7850000,0.0324,0.013523,0.002678,0.000431,1.612722
7851000,0.0324,0.013523,0.002678,0.000431,1.543380
7852000,0.0324,0.013523,0.002678,0.000431,1.468515
7853000,0.0324,0.013523,0.002678,0.000431,1.426440
7854000,0.0324,0.013523,0.002678,0.000431,1.341702
7855000,0.0324,0.013523,0.002678,0.000431,1.350986
7856000,0.0324,0.013523,0.002678,0.000431,1.291400
7857000,0.0324,0.013523,0.002678,0.000431,1.255671
7858000,0.0324,0.013523,0.002678,0.000431,1.225936
7859000,0.0324,0.013523,0.002678,0.000431,1.193499
7860000,0.0324,0.013523,0.002678,0.000431,1.159768
7861000,0.0324,0.013523,0.002678,0.000431,1.240040
7862000,0.0324,0.013523,0.002678,0.000431,1.203959
7863000,0.0324,0.013523,0.002678,0.000431,1.311615
7864000,0.0324,0.013523,0.002678,0.000431,1.186329
7865000,0.0324,0.013523,0.002678,0.000431,1.262253
7866000,0.0324,0.013523,0.002678,0.000431,1.371201
7867000,0.0324,0.013523,0.002678,0.000431,1.440778
7868000,0.0324,0.013523,0.002678,0.000431,1.482500
7869000,0.0324,0.013523,0.002678,0.000431,1.609666
7870000,0.0324,0.013523,0.002678,0.000431,1.738829
7871000,0.0324,0.013523,0.002678,0.000431,1.796418
7872000,0.0324,0.013523,0.002678,0.000431,2.000800
7873000,0.0324,0.013523,0.002678,0.000431,2.064500
7874000,0.0324,0.013523,0.002678,0.000431,2.137250
7875000,0.0324,0.013523,0.002678,0.000431,2.209530
7876000,0.0324,0.013523,0.002678,0.000431,2.221753
7877000,0.0324,0.013523,0.002678,0.000431,2.306373
7878000,0.0324,0.013523,0.002678,0.000431,2.318243
7879000,0.0324,0.013523,0.002678,0.000431,2.347273
7880000,0.0324,0.013523,0.002678,0.000431,2.329761
7881000,0.0324,0.013523,0.002678,0.000431,2.424136
7882000,0.0324,0.013523,0.002678,0.000431,2.454694
7883000,0.0324,0.013523,0.002678,0.000431,2.559881
7884000,0.0324,0.013523,0.002678,0.000431,2.549304
7885000,0.0324,0.013523,0.002678,0.000431,2.509814
7886000,0.0324,0.013523,0.002678,0.000431,2.636980
7887000,0.0324,0.013523,0.002678,0.000431,2.617470
7888000,0.0324,0.013523,0.002678,0.000431,2.634394
7889000,0.0324,0.013523,0.002678,0.000431,2.576453
7890000,0.0324,0.013523,0.002678,0.000431,2.724773
7891000,0.0324,0.013523,0.002678,0.000431,2.810334
7892000,0.0324,0.013523,0.002678,0.000431,2.821969
7893000,0.0324,0.013523,0.002678,0.000431,2.752275
7894000,0.0324,0.013523,0.002678,0.000431,2.789649
7895000,0.0324,0.013523,0.002678,0.000431,2.806338
7896000,0.0324,0.013523,0.002678,0.000431,2.906472
7897000,0.0324,0.013523,0.002678,0.000431,2.975343
7898000,0.0324,0.013523,0.002678,0.000431,2.936794
7899000,0.0324,0.013523,0.002678,0.000431,2.961240
7900000,0.0324,0.013523,0.002678,0.000431,3.059611
7901000,0.0324,0.013523,0.002678,0.000431,3.002140
7902000,0.0324,0.013523,0.002678,0.000431,3.113557
7903000,0.0324,0.013523,0.002678,0.000431,3.262582
7904000,0.0324,0.013523,0.002678,0.000431,3.161861
7905000,0.0324,0.013523,0.002678,0.000431,3.327340
7906000,0.0324,0.013523,0.002678,0.000431,3.193593
7907000,0.0324,0.013523,0.002678,0.000431,3.168560
7908000,0.0324,0.013523,0.002678,0.000431,3.332747
7909000,0.0324,0.013523,0.002678,0.000431,3.141528
7910000,0.0324,0.013523,0.002678,0.000431,2.962768
7911000,0.0324,0.013523,0.002678,0.000431,3.228969
7912000,0.0324,0.013523,0.002678,0.000431,3.047858
7913000,0.0324,0.013523,0.002678,0.000431,3.276098
7914000,0.0324,0.013523,0.002678,0.000431,3.130598
7915000,0.0324,0.013523,0.002678,0.000431,3.026351
7916000,0.0324,0.013523,0.002678,0.000431,2.763558
7917000,0.0324,0.013523,0.002678,0.000431,2.820324
7918000,0.0324,0.013523,0.002678,0.000431,2.666597
7919000,0.0324,0.013523,0.002678,0.000431,2.878735
7920000,0.0324,0.013523,0.002678,0.000431,3.213338
7921000,0.0324,0.013523,0.002678,0.000431,2.969937
7922000,0.0324,0.013523,0.002678,0.000431,2.863692
7923000,0.0324,0.013523,0.002678,0.000431,2.731002
7924000,0.0324,0.013523,0.002678,0.000431,2.773313
7925000,0.0324,0.013523,0.002678,0.000431,2.572339
7926000,0.0324,0.013523,0.002678,0.000431,2.387938
7927000,0.0324,0.013523,0.002678,0.000431,2.468209
7928000,0.0324,0.013523,0.002678,0.000431,2.347508
7929000,0.0324,0.013523,0.002678,0.000431,2.199422
7930000,0.0324,0.013523,0.002678,0.000431,2.115860
7931000,0.0324,0.013523,0.002678,0.000431,2.448817
7932000,0.0324,0.013523,0.002678,0.000431,2.334462
7933000,0.0324,0.013523,0.002678,0.000431,2.224456
7934000,0.0324,0.013523,0.002678,0.000431,2.252075
7935000,0.0324,0.013523,0.002678,0.000431,2.068966
7936000,0.0324,0.013523,0.002678,0.000431,1.982113
7937000,0.0324,0.013523,0.002678,0.000431,1.985404
7938000,0.0324,0.013523,0.002678,0.000431,1.903721
7939000,0.0324,0.013523,0.002678,0.000431,2.054393
7940000,0.0324,0.013523,0.002678,0.000431,2.200480
7941000,0.0324,0.013523,0.002678,0.000431,1.986109
7942000,0.0324,0.013523,0.002678,0.000431,1.751993
7943000,0.0324,0.013523,0.002678,0.000431,1.735186
7944000,0.0324,0.013523,0.002678,0.000431,1.712033
7945000,0.0324,0.013523,0.002678,0.000431,1.737067
7946000,0.0324,0.013523,0.002678,0.000431,1.789132
7947000,0.0324,0.013523,0.002678,0.000431,1.644219
7948000,0.0324,0.013523,0.002678,0.000431,1.655972
7949000,0.0324,0.013523,0.002678,0.000431,1.766449
7950000,0.0324,0.013523,0.002678,0.000431,1.692876
7951000,0.0324,0.013523,0.002678,0.000431,1.606375
7952000,0.0324,0.013523,0.002678,0.000431,1.504361
7953000,0.0324,0.013523,0.002678,0.000431,1.553370
7954000,0.0324,0.013523,0.002678,0.000431,1.575348
7955000,0.0324,0.013523,0.002678,0.000431,1.549021
7956000,0.0324,0.013523,0.002678,0.000431,1.519404
7957000,0.0324,0.013523,0.002678,0.000431,1.492255
7958000,0.0324,0.013523,0.002678,0.000431,1.458877
7959000,0.0324,0.013523,0.002678,0.000431,1.565593
7960000,0.0324,0.013523,0.002678,0.000431,1.466752
7961000,0.0324,0.013523,0.002678,0.000431,1.426910
7962000,0.0324,0.013523,0.002678,0.000431,1.509179
7963000,0.0324,0.013523,0.002678,0.000431,1.431258
7964000,0.0324,0.013523,0.002678,0.000431,1.336766
7965000,0.0324,0.013523,0.002678,0.000431,1.521872
7966000,0.0324,0.013523,0.002678,0.000431,1.540207
7967000,0.0324,0.013523,0.002678,0.000431,1.398820
7968000,0.0324,0.013523,0.002678,0.000431,1.298451
7969000,0.0324,0.013523,0.002678,0.000431,1.447595
7970000,0.0324,0.013523,0.002678,0.000431,1.377665
7971000,0.0324,0.013523,0.002678,0.000431,1.344993
7972000,0.0324,0.013523,0.002678,0.000431,1.296218
7973000,0.0324,0.013523,0.002678,0.000431,1.446419
7974000,0.0324,0.013523,0.002678,0.000431,1.570764
7975000,0.0324,0.013523,0.002678,0.000431,1.358861
7976000,0.0324,0.013523,0.002678,0.000431,1.355805
7977000,0.0324,0.013523,0.002678,0.000431,1.558659
7978000,0.0324,0.013523,0.002678,0.000431,1.354865
7979000,0.0324,0.013523,0.002678,0.000431,1.197730
7980000,0.0324,0.013523,0.002678,0.000431,1.368733
7981000,0.0324,0.013523,0.002678,0.000431,1.498367
7982000,0.0324,0.013523,0.002678,0.000431,1.701455
7983000,0.0324,0.013523,0.002678,0.000431,1.560657
7984000,0.0324,0.013523,0.002678,0.000431,1.251323
7985000,0.0324,0.013523,0.002678,0.000431,1.339586
7986000,0.0324,0.013523,0.002678,0.000431,1.436665
7987000,0.0324,0.013523,0.002678,0.000431,1.450063
7988000,0.0324,0.013523,0.002678,0.000431,1.506476
7989000,0.0324,0.013523,0.002678,0.000431,1.515761
7990000,0.0324,0.013523,0.002678,0.000431,1.556426
7991000,0.0324,0.013523,0.002678,0.000431,1.488612
7992000,0.0324,0.013523,0.002678,0.000431,1.485204
7993000,0.0324,0.013523,0.002678,0.000431,1.395882
7994000,0.0324,0.013523,0.002678,0.000431,1.502363
7995000,0.0324,0.013523,0.002678,0.000431,1.413394
7996000,0.0324,0.013523,0.002678,0.000431,1.489552
7997000,0.0324,0.013523,0.002678,0.000431,1.343817
7998000,0.0324,0.013523,0.002678,0.000431,1.300567
7999000,0.0324,0.013523,0.002678,0.000431,1.372847
