Cycle,Area(mm^2),PeakDynamic(W),SubthresholdLeakage(W),GateLeakage(W),RunTimeDynamic(W)
19000000,0.0324,0.013523,0.002678,0.000431,0.001763
19001000,0.0324,0.013523,0.002678,0.000431,0.002351
19002000,0.0324,0.013523,0.002678,0.000431,0.002351
19003000,0.0324,0.013523,0.002678,0.000431,0.001998
19004000,0.0324,0.013523,0.002678,0.000431,0.002351
19005000,0.0324,0.013523,0.002678,0.000431,0.002586
19006000,0.0324,0.013523,0.002678,0.000431,0.002116
19007000,0.0324,0.013523,0.002678,0.000431,0.002586
19008000,0.0324,0.013523,0.002678,0.000431,0.002116
19009000,0.0324,0.013523,0.002678,0.000431,0.002116
19010000,0.0324,0.013523,0.002678,0.000431,0.002586
19011000,0.0324,0.013523,0.002678,0.000431,0.002233
19012000,0.0324,0.013523,0.002678,0.000431,0.002468
19013000,0.0324,0.013523,0.002678,0.000431,0.002351
19014000,0.0324,0.013523,0.002678,0.000431,0.002351
19015000,0.0324,0.013523,0.002678,0.000431,0.002351
19016000,0.0324,0.013523,0.002678,0.000431,0.002468
19017000,0.0324,0.013523,0.002678,0.000431,0.001763
19018000,0.0324,0.013523,0.002678,0.000431,0.002116
19019000,0.0324,0.013523,0.002678,0.000431,0.002233
19020000,0.0324,0.013523,0.002678,0.000431,0.002351
19021000,0.0324,0.013523,0.002678,0.000431,0.002233
19022000,0.0324,0.013523,0.002678,0.000431,0.002116
19023000,0.0324,0.013523,0.002678,0.000431,0.002351
19024000,0.0324,0.013523,0.002678,0.000431,0.002116
19025000,0.0324,0.013523,0.002678,0.000431,0.001645
19026000,0.0324,0.013523,0.002678,0.000431,0.002351
19027000,0.0324,0.013523,0.002678,0.000431,0.002233
19028000,0.0324,0.013523,0.002678,0.000431,0.002116
19029000,0.0324,0.013523,0.002678,0.000431,0.002468
19030000,0.0324,0.013523,0.002678,0.000431,0.002116
19031000,0.0324,0.013523,0.002678,0.000431,0.002116
19032000,0.0324,0.013523,0.002678,0.000431,0.002468
19033000,0.0324,0.013523,0.002678,0.000431,0.002233
19034000,0.0324,0.013523,0.002678,0.000431,0.002586
19035000,0.0324,0.013523,0.002678,0.000431,0.002468
19036000,0.0324,0.013523,0.002678,0.000431,0.002116
19037000,0.0324,0.013523,0.002678,0.000431,0.002703
19038000,0.0324,0.013523,0.002678,0.000431,0.002468
19039000,0.0324,0.013523,0.002678,0.000431,0.002233
19040000,0.0324,0.013523,0.002678,0.000431,0.002703
19041000,0.0324,0.013523,0.002678,0.000431,0.002468
19042000,0.0324,0.013523,0.002678,0.000431,0.002233
19043000,0.0324,0.013523,0.002678,0.000431,0.002586
19044000,0.0324,0.013523,0.002678,0.000431,0.002703
19045000,0.0324,0.013523,0.002678,0.000431,0.002821
19046000,0.0324,0.013523,0.002678,0.000431,0.002468
19047000,0.0324,0.013523,0.002678,0.000431,0.002351
19048000,0.0324,0.013523,0.002678,0.000431,0.002233
19049000,0.0324,0.013523,0.002678,0.000431,0.002351
19050000,0.0324,0.013523,0.002678,0.000431,0.002468
19051000,0.0324,0.013523,0.002678,0.000431,0.002468
19052000,0.0324,0.013523,0.002678,0.000431,0.002351
19053000,0.0324,0.013523,0.002678,0.000431,0.002468
19054000,0.0324,0.013523,0.002678,0.000431,0.002468
19055000,0.0324,0.013523,0.002678,0.000431,0.002468
19056000,0.0324,0.013523,0.002678,0.000431,0.002351
19057000,0.0324,0.013523,0.002678,0.000431,0.002233
19058000,0.0324,0.013523,0.002678,0.000431,0.002116
19059000,0.0324,0.013523,0.002678,0.000431,0.002703
19060000,0.0324,0.013523,0.002678,0.000431,0.002821
19061000,0.0324,0.013523,0.002678,0.000431,0.002351
19062000,0.0324,0.013523,0.002678,0.000431,0.002586
19063000,0.0324,0.013523,0.002678,0.000431,0.002703
19064000,0.0324,0.013523,0.002678,0.000431,0.002468
19065000,0.0324,0.013523,0.002678,0.000431,0.002938
19066000,0.0324,0.013523,0.002678,0.000431,0.002351
19067000,0.0324,0.013523,0.002678,0.000431,0.002233
19068000,0.0324,0.013523,0.002678,0.000431,0.002586
19069000,0.0324,0.013523,0.002678,0.000431,0.002468
19070000,0.0324,0.013523,0.002678,0.000431,0.002233
19071000,0.0324,0.013523,0.002678,0.000431,0.002586
19072000,0.0324,0.013523,0.002678,0.000431,0.002233
19073000,0.0324,0.013523,0.002678,0.000431,0.002468
19074000,0.0324,0.013523,0.002678,0.000431,0.001763
19075000,0.0324,0.013523,0.002678,0.000431,0.002351
19076000,0.0324,0.013523,0.002678,0.000431,0.002233
19077000,0.0324,0.013523,0.002678,0.000431,0.002351
19078000,0.0324,0.013523,0.002678,0.000431,0.002351
19079000,0.0324,0.013523,0.002678,0.000431,0.002468
19080000,0.0324,0.013523,0.002678,0.000431,0.002703
19081000,0.0324,0.013523,0.002678,0.000431,0.002116
19082000,0.0324,0.013523,0.002678,0.000431,0.001645
19083000,0.0324,0.013523,0.002678,0.000431,0.002351
19084000,0.0324,0.013523,0.002678,0.000431,0.001998
19085000,0.0324,0.013523,0.002678,0.000431,0.002703
19086000,0.0324,0.013523,0.002678,0.000431,0.002233
19087000,0.0324,0.013523,0.002678,0.000431,0.002938
19088000,0.0324,0.013523,0.002678,0.000431,0.002233
19089000,0.0324,0.013523,0.002678,0.000431,0.002468
19090000,0.0324,0.013523,0.002678,0.000431,0.001998
19091000,0.0324,0.013523,0.002678,0.000431,0.002351
19092000,0.0324,0.013523,0.002678,0.000431,0.001763
19093000,0.0324,0.013523,0.002678,0.000431,0.001880
19094000,0.0324,0.013523,0.002678,0.000431,0.002586
19095000,0.0324,0.013523,0.002678,0.000431,0.001880
19096000,0.0324,0.013523,0.002678,0.000431,0.001998
19097000,0.0324,0.013523,0.002678,0.000431,0.002116
19098000,0.0324,0.013523,0.002678,0.000431,0.001763
19099000,0.0324,0.013523,0.002678,0.000431,0.001998
19100000,0.0324,0.013523,0.002678,0.000431,0.002468
19101000,0.0324,0.013523,0.002678,0.000431,0.002116
19102000,0.0324,0.013523,0.002678,0.000431,0.002116
19103000,0.0324,0.013523,0.002678,0.000431,0.001763
19104000,0.0324,0.013523,0.002678,0.000431,0.002116
19105000,0.0324,0.013523,0.002678,0.000431,0.002351
19106000,0.0324,0.013523,0.002678,0.000431,0.002351
19107000,0.0324,0.013523,0.002678,0.000431,0.001880
19108000,0.0324,0.013523,0.002678,0.000431,0.002116
19109000,0.0324,0.013523,0.002678,0.000431,0.002351
19110000,0.0324,0.013523,0.002678,0.000431,0.002468
19111000,0.0324,0.013523,0.002678,0.000431,0.002116
19112000,0.0324,0.013523,0.002678,0.000431,0.001998
19113000,0.0324,0.013523,0.002678,0.000431,0.001293
19114000,0.0324,0.013523,0.002678,0.000431,0.001293
19115000,0.0324,0.013523,0.002678,0.000431,0.001763
19116000,0.0324,0.013523,0.002678,0.000431,0.001410
19117000,0.0324,0.013523,0.002678,0.000431,0.001175
19118000,0.0324,0.013523,0.002678,0.000431,0.001175
19119000,0.0324,0.013523,0.002678,0.000431,0.001175
19120000,0.0324,0.013523,0.002678,0.000431,0.001293
19121000,0.0324,0.013523,0.002678,0.000431,0.001175
19122000,0.0324,0.013523,0.002678,0.000431,0.001410
19123000,0.0324,0.013523,0.002678,0.000431,0.001410
19124000,0.0324,0.013523,0.002678,0.000431,0.001410
19125000,0.0324,0.013523,0.002678,0.000431,0.001763
19126000,0.0324,0.013523,0.002678,0.000431,0.001645
19127000,0.0324,0.013523,0.002678,0.000431,0.001175
19128000,0.0324,0.013523,0.002678,0.000431,0.001410
19129000,0.0324,0.013523,0.002678,0.000431,0.000940
19130000,0.0324,0.013523,0.002678,0.000431,0.001293
19131000,0.0324,0.013523,0.002678,0.000431,0.001175
19132000,0.0324,0.013523,0.002678,0.000431,0.001293
19133000,0.0324,0.013523,0.002678,0.000431,0.001880
19134000,0.0324,0.013523,0.002678,0.000431,0.001528
19135000,0.0324,0.013523,0.002678,0.000431,0.001293
19136000,0.0324,0.013523,0.002678,0.000431,0.001410
19137000,0.0324,0.013523,0.002678,0.000431,0.001410
19138000,0.0324,0.013523,0.002678,0.000431,0.001058
19139000,0.0324,0.013523,0.002678,0.000431,0.001410
19140000,0.0324,0.013523,0.002678,0.000431,0.001175
19141000,0.0324,0.013523,0.002678,0.000431,0.001293
19142000,0.0324,0.013523,0.002678,0.000431,0.001058
19143000,0.0324,0.013523,0.002678,0.000431,0.001293
19144000,0.0324,0.013523,0.002678,0.000431,0.001645
19145000,0.0324,0.013523,0.002678,0.000431,0.000940
19146000,0.0324,0.013523,0.002678,0.000431,0.001645
19147000,0.0324,0.013523,0.002678,0.000431,0.001410
19148000,0.0324,0.013523,0.002678,0.000431,0.001410
19149000,0.0324,0.013523,0.002678,0.000431,0.001645
19150000,0.0324,0.013523,0.002678,0.000431,0.001998
19151000,0.0324,0.013523,0.002678,0.000431,0.001645
19152000,0.0324,0.013523,0.002678,0.000431,0.001293
19153000,0.0324,0.013523,0.002678,0.000431,0.001528
19154000,0.0324,0.013523,0.002678,0.000431,0.001293
19155000,0.0324,0.013523,0.002678,0.000431,0.001293
19156000,0.0324,0.013523,0.002678,0.000431,0.001410
19157000,0.0324,0.013523,0.002678,0.000431,0.001645
19158000,0.0324,0.013523,0.002678,0.000431,0.001528
19159000,0.0324,0.013523,0.002678,0.000431,0.001410
19160000,0.0324,0.013523,0.002678,0.000431,0.001763
19161000,0.0324,0.013523,0.002678,0.000431,0.001528
19162000,0.0324,0.013523,0.002678,0.000431,0.001880
19163000,0.0324,0.013523,0.002678,0.000431,0.001880
19164000,0.0324,0.013523,0.002678,0.000431,0.001645
19165000,0.0324,0.013523,0.002678,0.000431,0.001645
19166000,0.0324,0.013523,0.002678,0.000431,0.000823
19167000,0.0324,0.013523,0.002678,0.000431,0.000705
19168000,0.0324,0.013523,0.002678,0.000431,0.000940
19169000,0.0324,0.013523,0.002678,0.000431,0.000470
19170000,0.0324,0.013523,0.002678,0.000431,0.000705
19171000,0.0324,0.013523,0.002678,0.000431,0.000705
19172000,0.0324,0.013523,0.002678,0.000431,0.000470
19173000,0.0324,0.013523,0.002678,0.000431,0.000940
19174000,0.0324,0.013523,0.002678,0.000431,0.000940
19175000,0.0324,0.013523,0.002678,0.000431,0.001058
19176000,0.0324,0.013523,0.002678,0.000431,0.000823
19177000,0.0324,0.013523,0.002678,0.000431,0.000705
19178000,0.0324,0.013523,0.002678,0.000431,0.000940
19179000,0.0324,0.013523,0.002678,0.000431,0.000588
19180000,0.0324,0.013523,0.002678,0.000431,0.000940
19181000,0.0324,0.013523,0.002678,0.000431,0.000823
19182000,0.0324,0.013523,0.002678,0.000431,0.000940
19183000,0.0324,0.013523,0.002678,0.000431,0.000940
19184000,0.0324,0.013523,0.002678,0.000431,0.001175
19185000,0.0324,0.013523,0.002678,0.000431,0.000705
19186000,0.0324,0.013523,0.002678,0.000431,0.000940
19187000,0.0324,0.013523,0.002678,0.000431,0.000940
19188000,0.0324,0.013523,0.002678,0.000431,0.000470
19189000,0.0324,0.013523,0.002678,0.000431,0.000588
19190000,0.0324,0.013523,0.002678,0.000431,0.000588
19191000,0.0324,0.013523,0.002678,0.000431,0.000588
19192000,0.0324,0.013523,0.002678,0.000431,0.000588
19193000,0.0324,0.013523,0.002678,0.000431,0.000588
19194000,0.0324,0.013523,0.002678,0.000431,0.000823
19195000,0.0324,0.013523,0.002678,0.000431,0.000705
19196000,0.0324,0.013523,0.002678,0.000431,0.001058
19197000,0.0324,0.013523,0.002678,0.000431,0.000940
19198000,0.0324,0.013523,0.002678,0.000431,0.000940
19199000,0.0324,0.013523,0.002678,0.000431,0.001175
19200000,0.0324,0.013523,0.002678,0.000431,0.000705
19201000,0.0324,0.013523,0.002678,0.000431,0.000588
19202000,0.0324,0.013523,0.002678,0.000431,0.001175
19203000,0.0324,0.013523,0.002678,0.000431,0.000940
19204000,0.0324,0.013523,0.002678,0.000431,0.001058
19205000,0.0324,0.013523,0.002678,0.000431,0.000823
19206000,0.0324,0.013523,0.002678,0.000431,0.000940
19207000,0.0324,0.013523,0.002678,0.000431,0.000705
19208000,0.0324,0.013523,0.002678,0.000431,0.000588
19209000,0.0324,0.013523,0.002678,0.000431,0.000588
19210000,0.0324,0.013523,0.002678,0.000431,0.000588
19211000,0.0324,0.013523,0.002678,0.000431,0.000588
19212000,0.0324,0.013523,0.002678,0.000431,0.000470
19213000,0.0324,0.013523,0.002678,0.000431,0.001175
19214000,0.0324,0.013523,0.002678,0.000431,0.000705
19215000,0.0324,0.013523,0.002678,0.000431,0.000940
19216000,0.0324,0.013523,0.002678,0.000431,0.000940
19217000,0.0324,0.013523,0.002678,0.000431,0.000470
19218000,0.0324,0.013523,0.002678,0.000431,0.000705
19219000,0.0324,0.013523,0.002678,0.000431,0.000940
19220000,0.0324,0.013523,0.002678,0.000431,0.000705
19221000,0.0324,0.013523,0.002678,0.000431,0.000940
19222000,0.0324,0.013523,0.002678,0.000431,0.000470
19223000,0.0324,0.013523,0.002678,0.000431,0.000588
19224000,0.0324,0.013523,0.002678,0.000431,0.000940
19225000,0.0324,0.013523,0.002678,0.000431,0.000823
19226000,0.0324,0.013523,0.002678,0.000431,0.000823
19227000,0.0324,0.013523,0.002678,0.000431,0.000588
19228000,0.0324,0.013523,0.002678,0.000431,0.000705
19229000,0.0324,0.013523,0.002678,0.000431,0.000470
19230000,0.0324,0.013523,0.002678,0.000431,0.000588
19231000,0.0324,0.013523,0.002678,0.000431,0.000823
19232000,0.0324,0.013523,0.002678,0.000431,0.000470
19233000,0.0324,0.013523,0.002678,0.000431,0.000588
19234000,0.0324,0.013523,0.002678,0.000431,0.000588
19235000,0.0324,0.013523,0.002678,0.000431,0.000705
19236000,0.0324,0.013523,0.002678,0.000431,0.000470
19237000,0.0324,0.013523,0.002678,0.000431,0.000705
19238000,0.0324,0.013523,0.002678,0.000431,0.000588
19239000,0.0324,0.013523,0.002678,0.000431,0.000588
19240000,0.0324,0.013523,0.002678,0.000431,0.000823
19241000,0.0324,0.013523,0.002678,0.000431,0.000823
19242000,0.0324,0.013523,0.002678,0.000431,0.000588
19243000,0.0324,0.013523,0.002678,0.000431,0.001058
19244000,0.0324,0.013523,0.002678,0.000431,0.000470
19245000,0.0324,0.013523,0.002678,0.000431,0.001058
19246000,0.0324,0.013523,0.002678,0.000431,0.000705
19247000,0.0324,0.013523,0.002678,0.000431,0.000823
19248000,0.0324,0.013523,0.002678,0.000431,0.000705
19249000,0.0324,0.013523,0.002678,0.000431,0.000705
19250000,0.0324,0.013523,0.002678,0.000431,0.000940
19251000,0.0324,0.013523,0.002678,0.000431,0.000470
19252000,0.0324,0.013523,0.002678,0.000431,0.000823
19253000,0.0324,0.013523,0.002678,0.000431,0.000940
19254000,0.0324,0.013523,0.002678,0.000431,0.001058
19255000,0.0324,0.013523,0.002678,0.000431,0.000823
19256000,0.0324,0.013523,0.002678,0.000431,0.001058
19257000,0.0324,0.013523,0.002678,0.000431,0.000705
19258000,0.0324,0.013523,0.002678,0.000431,0.001058
19259000,0.0324,0.013523,0.002678,0.000431,0.001058
19260000,0.0324,0.013523,0.002678,0.000431,0.000705
19261000,0.0324,0.013523,0.002678,0.000431,0.000940
19262000,0.0324,0.013523,0.002678,0.000431,0.000940
19263000,0.0324,0.013523,0.002678,0.000431,0.000705
19264000,0.0324,0.013523,0.002678,0.000431,0.000823
19265000,0.0324,0.013523,0.002678,0.000431,0.000823
19266000,0.0324,0.013523,0.002678,0.000431,0.001058
19267000,0.0324,0.013523,0.002678,0.000431,0.000588
19268000,0.0324,0.013523,0.002678,0.000431,0.000588
19269000,0.0324,0.013523,0.002678,0.000431,0.000588
19270000,0.0324,0.013523,0.002678,0.000431,0.000588
19271000,0.0324,0.013523,0.002678,0.000431,0.000588
19272000,0.0324,0.013523,0.002678,0.000431,0.000705
19273000,0.0324,0.013523,0.002678,0.000431,0.000705
19274000,0.0324,0.013523,0.002678,0.000431,0.000705
19275000,0.0324,0.013523,0.002678,0.000431,0.000940
19276000,0.0324,0.013523,0.002678,0.000431,0.000823
19277000,0.0324,0.013523,0.002678,0.000431,0.000823
19278000,0.0324,0.013523,0.002678,0.000431,0.000940
19279000,0.0324,0.013523,0.002678,0.000431,0.000470
19280000,0.0324,0.013523,0.002678,0.000431,0.001058
19281000,0.0324,0.013523,0.002678,0.000431,0.000588
19282000,0.0324,0.013523,0.002678,0.000431,0.000588
19283000,0.0324,0.013523,0.002678,0.000431,0.000588
19284000,0.0324,0.013523,0.002678,0.000431,0.000705
19285000,0.0324,0.013523,0.002678,0.000431,0.000823
19286000,0.0324,0.013523,0.002678,0.000431,0.000705
19287000,0.0324,0.013523,0.002678,0.000431,0.000823
19288000,0.0324,0.013523,0.002678,0.000431,0.000705
19289000,0.0324,0.013523,0.002678,0.000431,0.000470
19290000,0.0324,0.013523,0.002678,0.000431,0.000705
19291000,0.0324,0.013523,0.002678,0.000431,0.000588
19292000,0.0324,0.013523,0.002678,0.000431,0.000588
19293000,0.0324,0.013523,0.002678,0.000431,0.000940
19294000,0.0324,0.013523,0.002678,0.000431,0.000823
19295000,0.0324,0.013523,0.002678,0.000431,0.000823
19296000,0.0324,0.013523,0.002678,0.000431,0.000823
19297000,0.0324,0.013523,0.002678,0.000431,0.000823
19298000,0.0324,0.013523,0.002678,0.000431,0.000588
19299000,0.0324,0.013523,0.002678,0.000431,0.000588
19300000,0.0324,0.013523,0.002678,0.000431,0.000588
19301000,0.0324,0.013523,0.002678,0.000431,0.000940
19302000,0.0324,0.013523,0.002678,0.000431,0.000588
19303000,0.0324,0.013523,0.002678,0.000431,0.000705
19304000,0.0324,0.013523,0.002678,0.000431,0.000470
19305000,0.0324,0.013523,0.002678,0.000431,0.001058
19306000,0.0324,0.013523,0.002678,0.000431,0.000588
19307000,0.0324,0.013523,0.002678,0.000431,0.000940
19308000,0.0324,0.013523,0.002678,0.000431,0.000940
19309000,0.0324,0.013523,0.002678,0.000431,0.000940
19310000,0.0324,0.013523,0.002678,0.000431,0.000940
19311000,0.0324,0.013523,0.002678,0.000431,0.000940
19312000,0.0324,0.013523,0.002678,0.000431,0.000705
19313000,0.0324,0.013523,0.002678,0.000431,0.000470
19314000,0.0324,0.013523,0.002678,0.000431,0.000705
19315000,0.0324,0.013523,0.002678,0.000431,0.000470
19316000,0.0324,0.013523,0.002678,0.000431,0.000705
19317000,0.0324,0.013523,0.002678,0.000431,0.000705
19318000,0.0324,0.013523,0.002678,0.000431,0.000940
19319000,0.0324,0.013523,0.002678,0.000431,0.000940
19320000,0.0324,0.013523,0.002678,0.000431,0.000588
19321000,0.0324,0.013523,0.002678,0.000431,0.000588
19322000,0.0324,0.013523,0.002678,0.000431,0.000588
19323000,0.0324,0.013523,0.002678,0.000431,0.000588
19324000,0.0324,0.013523,0.002678,0.000431,0.001058
19325000,0.0324,0.013523,0.002678,0.000431,0.000588
19326000,0.0324,0.013523,0.002678,0.000431,0.000470
19327000,0.0324,0.013523,0.002678,0.000431,0.000705
19328000,0.0324,0.013523,0.002678,0.000431,0.000588
19329000,0.0324,0.013523,0.002678,0.000431,0.000588
19330000,0.0324,0.013523,0.002678,0.000431,0.000470
19331000,0.0324,0.013523,0.002678,0.000431,0.001058
19332000,0.0324,0.013523,0.002678,0.000431,0.001058
19333000,0.0324,0.013523,0.002678,0.000431,0.000940
19334000,0.0324,0.013523,0.002678,0.000431,0.000588
19335000,0.0324,0.013523,0.002678,0.000431,0.000823
19336000,0.0324,0.013523,0.002678,0.000431,0.000823
19337000,0.0324,0.013523,0.002678,0.000431,0.000705
19338000,0.0324,0.013523,0.002678,0.000431,0.000588
19339000,0.0324,0.013523,0.002678,0.000431,0.000588
19340000,0.0324,0.013523,0.002678,0.000431,0.000588
19341000,0.0324,0.013523,0.002678,0.000431,0.000705
19342000,0.0324,0.013523,0.002678,0.000431,0.000470
19343000,0.0324,0.013523,0.002678,0.000431,0.000705
19344000,0.0324,0.013523,0.002678,0.000431,0.000940
19345000,0.0324,0.013523,0.002678,0.000431,0.000940
19346000,0.0324,0.013523,0.002678,0.000431,0.000705
19347000,0.0324,0.013523,0.002678,0.000431,0.000470
19348000,0.0324,0.013523,0.002678,0.000431,0.000705
19349000,0.0324,0.013523,0.002678,0.000431,0.000940
19350000,0.0324,0.013523,0.002678,0.000431,0.000823
19351000,0.0324,0.013523,0.002678,0.000431,0.000823
19352000,0.0324,0.013523,0.002678,0.000431,0.001058
19353000,0.0324,0.013523,0.002678,0.000431,0.001058
19354000,0.0324,0.013523,0.002678,0.000431,0.000470
19355000,0.0324,0.013523,0.002678,0.000431,0.001058
19356000,0.0324,0.013523,0.002678,0.000431,0.000823
19357000,0.0324,0.013523,0.002678,0.000431,0.000470
19358000,0.0324,0.013523,0.002678,0.000431,0.000705
19359000,0.0324,0.013523,0.002678,0.000431,0.000940
19360000,0.0324,0.013523,0.002678,0.000431,0.000940
19361000,0.0324,0.013523,0.002678,0.000431,0.000705
19362000,0.0324,0.013523,0.002678,0.000431,0.000470
19363000,0.0324,0.013523,0.002678,0.000431,0.000823
19364000,0.0324,0.013523,0.002678,0.000431,0.000823
19365000,0.0324,0.013523,0.002678,0.000431,0.000940
19366000,0.0324,0.013523,0.002678,0.000431,0.000588
19367000,0.0324,0.013523,0.002678,0.000431,0.000588
19368000,0.0324,0.013523,0.002678,0.000431,0.000940
19369000,0.0324,0.013523,0.002678,0.000431,0.000940
19370000,0.0324,0.013523,0.002678,0.000431,0.000940
19371000,0.0324,0.013523,0.002678,0.000431,0.001058
19372000,0.0324,0.013523,0.002678,0.000431,0.000588
19373000,0.0324,0.013523,0.002678,0.000431,0.000705
19374000,0.0324,0.013523,0.002678,0.000431,0.000940
19375000,0.0324,0.013523,0.002678,0.000431,0.000940
19376000,0.0324,0.013523,0.002678,0.000431,0.000705
19377000,0.0324,0.013523,0.002678,0.000431,0.000823
19378000,0.0324,0.013523,0.002678,0.000431,0.001058
19379000,0.0324,0.013523,0.002678,0.000431,0.000823
19380000,0.0324,0.013523,0.002678,0.000431,0.000588
19381000,0.0324,0.013523,0.002678,0.000431,0.001058
19382000,0.0324,0.013523,0.002678,0.000431,0.000705
19383000,0.0324,0.013523,0.002678,0.000431,0.000588
19384000,0.0324,0.013523,0.002678,0.000431,0.001058
19385000,0.0324,0.013523,0.002678,0.000431,0.001058
19386000,0.0324,0.013523,0.002678,0.000431,0.000470
19387000,0.0324,0.013523,0.002678,0.000431,0.000705
19388000,0.0324,0.013523,0.002678,0.000431,0.000940
19389000,0.0324,0.013523,0.002678,0.000431,0.000705
19390000,0.0324,0.013523,0.002678,0.000431,0.000705
19391000,0.0324,0.013523,0.002678,0.000431,0.000705
19392000,0.0324,0.013523,0.002678,0.000431,0.001058
19393000,0.0324,0.013523,0.002678,0.000431,0.001058
19394000,0.0324,0.013523,0.002678,0.000431,0.000940
19395000,0.0324,0.013523,0.002678,0.000431,0.000940
19396000,0.0324,0.013523,0.002678,0.000431,0.000823
19397000,0.0324,0.013523,0.002678,0.000431,0.000588
19398000,0.0324,0.013523,0.002678,0.000431,0.000705
19399000,0.0324,0.013523,0.002678,0.000431,0.000705
19400000,0.0324,0.013523,0.002678,0.000431,0.000940
19401000,0.0324,0.013523,0.002678,0.000431,0.000470
19402000,0.0324,0.013523,0.002678,0.000431,0.001058
19403000,0.0324,0.013523,0.002678,0.000431,0.000940
19404000,0.0324,0.013523,0.002678,0.000431,0.000588
19405000,0.0324,0.013523,0.002678,0.000431,0.000940
19406000,0.0324,0.013523,0.002678,0.000431,0.000940
19407000,0.0324,0.013523,0.002678,0.000431,0.000705
19408000,0.0324,0.013523,0.002678,0.000431,0.000940
19409000,0.0324,0.013523,0.002678,0.000431,0.000705
19410000,0.0324,0.013523,0.002678,0.000431,0.000470
19411000,0.0324,0.013523,0.002678,0.000431,0.000588
19412000,0.0324,0.013523,0.002678,0.000431,0.000588
19413000,0.0324,0.013523,0.002678,0.000431,0.000588
19414000,0.0324,0.013523,0.002678,0.000431,0.000588
19415000,0.0324,0.013523,0.002678,0.000431,0.000470
19416000,0.0324,0.013523,0.002678,0.000431,0.000705
19417000,0.0324,0.013523,0.002678,0.000431,0.000705
19418000,0.0324,0.013523,0.002678,0.000431,0.000823
19419000,0.0324,0.013523,0.002678,0.000431,0.000823
19420000,0.0324,0.013523,0.002678,0.000431,0.000705
19421000,0.0324,0.013523,0.002678,0.000431,0.000940
19422000,0.0324,0.013523,0.002678,0.000431,0.000940
19423000,0.0324,0.013523,0.002678,0.000431,0.001175
19424000,0.0324,0.013523,0.002678,0.000431,0.000940
19425000,0.0324,0.013523,0.002678,0.000431,0.000705
19426000,0.0324,0.013523,0.002678,0.000431,0.000470
19427000,0.0324,0.013523,0.002678,0.000431,0.000705
19428000,0.0324,0.013523,0.002678,0.000431,0.000823
19429000,0.0324,0.013523,0.002678,0.000431,0.000940
19430000,0.0324,0.013523,0.002678,0.000431,0.000823
19431000,0.0324,0.013523,0.002678,0.000431,0.000705
19432000,0.0324,0.013523,0.002678,0.000431,0.000940
19433000,0.0324,0.013523,0.002678,0.000431,0.000588
19434000,0.0324,0.013523,0.002678,0.000431,0.000588
19435000,0.0324,0.013523,0.002678,0.000431,0.000705
19436000,0.0324,0.013523,0.002678,0.000431,0.000940
19437000,0.0324,0.013523,0.002678,0.000431,0.000588
19438000,0.0324,0.013523,0.002678,0.000431,0.000823
19439000,0.0324,0.013523,0.002678,0.000431,0.000940
19440000,0.0324,0.013523,0.002678,0.000431,0.000470
19441000,0.0324,0.013523,0.002678,0.000431,0.000470
19442000,0.0324,0.013523,0.002678,0.000431,0.000705
19443000,0.0324,0.013523,0.002678,0.000431,0.000940
19444000,0.0324,0.013523,0.002678,0.000431,0.000940
19445000,0.0324,0.013523,0.002678,0.000431,0.001058
19446000,0.0324,0.013523,0.002678,0.000431,0.000823
19447000,0.0324,0.013523,0.002678,0.000431,0.000705
19448000,0.0324,0.013523,0.002678,0.000431,0.000823
19449000,0.0324,0.013523,0.002678,0.000431,0.000823
19450000,0.0324,0.013523,0.002678,0.000431,0.000940
19451000,0.0324,0.013523,0.002678,0.000431,0.000940
19452000,0.0324,0.013523,0.002678,0.000431,0.000823
19453000,0.0324,0.013523,0.002678,0.000431,0.000823
19454000,0.0324,0.013523,0.002678,0.000431,0.000940
19455000,0.0324,0.013523,0.002678,0.000431,0.000588
19456000,0.0324,0.013523,0.002678,0.000431,0.000588
19457000,0.0324,0.013523,0.002678,0.000431,0.000705
19458000,0.0324,0.013523,0.002678,0.000431,0.001058
19459000,0.0324,0.013523,0.002678,0.000431,0.000823
19460000,0.0324,0.013523,0.002678,0.000431,0.000705
19461000,0.0324,0.013523,0.002678,0.000431,0.000588
19462000,0.0324,0.013523,0.002678,0.000431,0.000823
19463000,0.0324,0.013523,0.002678,0.000431,0.000705
19464000,0.0324,0.013523,0.002678,0.000431,0.000705
19465000,0.0324,0.013523,0.002678,0.000431,0.000588
19466000,0.0324,0.013523,0.002678,0.000431,0.000588
19467000,0.0324,0.013523,0.002678,0.000431,0.000588
19468000,0.0324,0.013523,0.002678,0.000431,0.000823
19469000,0.0324,0.013523,0.002678,0.000431,0.000705
19470000,0.0324,0.013523,0.002678,0.000431,0.000940
19471000,0.0324,0.013523,0.002678,0.000431,0.000588
19472000,0.0324,0.013523,0.002678,0.000431,0.000588
19473000,0.0324,0.013523,0.002678,0.000431,0.000588
19474000,0.0324,0.013523,0.002678,0.000431,0.000588
19475000,0.0324,0.013523,0.002678,0.000431,0.000705
19476000,0.0324,0.013523,0.002678,0.000431,0.000470
19477000,0.0324,0.013523,0.002678,0.000431,0.000705
19478000,0.0324,0.013523,0.002678,0.000431,0.000705
19479000,0.0324,0.013523,0.002678,0.000431,0.000823
19480000,0.0324,0.013523,0.002678,0.000431,0.000588
19481000,0.0324,0.013523,0.002678,0.000431,0.000823
19482000,0.0324,0.013523,0.002678,0.000431,0.001058
19483000,0.0324,0.013523,0.002678,0.000431,0.000705
19484000,0.0324,0.013523,0.002678,0.000431,0.000705
19485000,0.0324,0.013523,0.002678,0.000431,0.000470
19486000,0.0324,0.013523,0.002678,0.000431,0.000940
19487000,0.0324,0.013523,0.002678,0.000431,0.000705
19488000,0.0324,0.013523,0.002678,0.000431,0.000470
19489000,0.0324,0.013523,0.002678,0.000431,0.000705
19490000,0.0324,0.013523,0.002678,0.000431,0.000470
19491000,0.0324,0.013523,0.002678,0.000431,0.000823
19492000,0.0324,0.013523,0.002678,0.000431,0.001058
19493000,0.0324,0.013523,0.002678,0.000431,0.000705
19494000,0.0324,0.013523,0.002678,0.000431,0.000705
19495000,0.0324,0.013523,0.002678,0.000431,0.000705
19496000,0.0324,0.013523,0.002678,0.000431,0.001058
19497000,0.0324,0.013523,0.002678,0.000431,0.000823
19498000,0.0324,0.013523,0.002678,0.000431,0.000823
19499000,0.0324,0.013523,0.002678,0.000431,0.000705
19500000,0.0324,0.013523,0.002678,0.000431,0.000588
19501000,0.0324,0.013523,0.002678,0.000431,0.000823
19502000,0.0324,0.013523,0.002678,0.000431,0.000940
19503000,0.0324,0.013523,0.002678,0.000431,0.000588
19504000,0.0324,0.013523,0.002678,0.000431,0.000940
19505000,0.0324,0.013523,0.002678,0.000431,0.000588
19506000,0.0324,0.013523,0.002678,0.000431,0.000588
19507000,0.0324,0.013523,0.002678,0.000431,0.000588
19508000,0.0324,0.013523,0.002678,0.000431,0.000823
19509000,0.0324,0.013523,0.002678,0.000431,0.000940
19510000,0.0324,0.013523,0.002678,0.000431,0.000705
19511000,0.0324,0.013523,0.002678,0.000431,0.000705
19512000,0.0324,0.013523,0.002678,0.000431,0.000940
19513000,0.0324,0.013523,0.002678,0.000431,0.000940
19514000,0.0324,0.013523,0.002678,0.000431,0.000705
19515000,0.0324,0.013523,0.002678,0.000431,0.000940
19516000,0.0324,0.013523,0.002678,0.000431,0.000470
19517000,0.0324,0.013523,0.002678,0.000431,0.000588
19518000,0.0324,0.013523,0.002678,0.000431,0.000588
19519000,0.0324,0.013523,0.002678,0.000431,0.000705
19520000,0.0324,0.013523,0.002678,0.000431,0.000940
19521000,0.0324,0.013523,0.002678,0.000431,0.000940
19522000,0.0324,0.013523,0.002678,0.000431,0.000470
19523000,0.0324,0.013523,0.002678,0.000431,0.000588
19524000,0.0324,0.013523,0.002678,0.000431,0.000588
19525000,0.0324,0.013523,0.002678,0.000431,0.000940
19526000,0.0324,0.013523,0.002678,0.000431,0.000588
19527000,0.0324,0.013523,0.002678,0.000431,0.000588
19528000,0.0324,0.013523,0.002678,0.000431,0.000940
19529000,0.0324,0.013523,0.002678,0.000431,0.000705
19530000,0.0324,0.013523,0.002678,0.000431,0.000588
19531000,0.0324,0.013523,0.002678,0.000431,0.000940
19532000,0.0324,0.013523,0.002678,0.000431,0.000588
19533000,0.0324,0.013523,0.002678,0.000431,0.000588
19534000,0.0324,0.013523,0.002678,0.000431,0.000940
19535000,0.0324,0.013523,0.002678,0.000431,0.000823
19536000,0.0324,0.013523,0.002678,0.000431,0.000705
19537000,0.0324,0.013523,0.002678,0.000431,0.000705
19538000,0.0324,0.013523,0.002678,0.000431,0.000705
19539000,0.0324,0.013523,0.002678,0.000431,0.000470
19540000,0.0324,0.013523,0.002678,0.000431,0.000705
19541000,0.0324,0.013523,0.002678,0.000431,0.000470
19542000,0.0324,0.013523,0.002678,0.000431,0.000940
19543000,0.0324,0.013523,0.002678,0.000431,0.000940
19544000,0.0324,0.013523,0.002678,0.000431,0.001058
19545000,0.0324,0.013523,0.002678,0.000431,0.000588
19546000,0.0324,0.013523,0.002678,0.000431,0.000705
19547000,0.0324,0.013523,0.002678,0.000431,0.000940
19548000,0.0324,0.013523,0.002678,0.000431,0.000940
19549000,0.0324,0.013523,0.002678,0.000431,0.000823
19550000,0.0324,0.013523,0.002678,0.000431,0.000823
19551000,0.0324,0.013523,0.002678,0.000431,0.000705
19552000,0.0324,0.013523,0.002678,0.000431,0.000705
19553000,0.0324,0.013523,0.002678,0.000431,0.000588
19554000,0.0324,0.013523,0.002678,0.000431,0.000588
19555000,0.0324,0.013523,0.002678,0.000431,0.000470
19556000,0.0324,0.013523,0.002678,0.000431,0.000705
19557000,0.0324,0.013523,0.002678,0.000431,0.000470
19558000,0.0324,0.013523,0.002678,0.000431,0.000705
19559000,0.0324,0.013523,0.002678,0.000431,0.000588
19560000,0.0324,0.013523,0.002678,0.000431,0.000588
19561000,0.0324,0.013523,0.002678,0.000431,0.000470
19562000,0.0324,0.013523,0.002678,0.000431,0.000705
19563000,0.0324,0.013523,0.002678,0.000431,0.000470
19564000,0.0324,0.013523,0.002678,0.000431,0.000705
19565000,0.0324,0.013523,0.002678,0.000431,0.000588
19566000,0.0324,0.013523,0.002678,0.000431,0.000588
19567000,0.0324,0.013523,0.002678,0.000431,0.000470
19568000,0.0324,0.013523,0.002678,0.000431,0.000588
19569000,0.0324,0.013523,0.002678,0.000431,0.000588
19570000,0.0324,0.013523,0.002678,0.000431,0.000705
19571000,0.0324,0.013523,0.002678,0.000431,0.000705
19572000,0.0324,0.013523,0.002678,0.000431,0.000940
19573000,0.0324,0.013523,0.002678,0.000431,0.000705
19574000,0.0324,0.013523,0.002678,0.000431,0.000940
19575000,0.0324,0.013523,0.002678,0.000431,0.000705
19576000,0.0324,0.013523,0.002678,0.000431,0.000705
19577000,0.0324,0.013523,0.002678,0.000431,0.000470
19578000,0.0324,0.013523,0.002678,0.000431,0.000705
19579000,0.0324,0.013523,0.002678,0.000431,0.000470
19580000,0.0324,0.013523,0.002678,0.000431,0.000705
19581000,0.0324,0.013523,0.002678,0.000431,0.000705
19582000,0.0324,0.013523,0.002678,0.000431,0.000470
19583000,0.0324,0.013523,0.002678,0.000431,0.000705
19584000,0.0324,0.013523,0.002678,0.000431,0.000940
19585000,0.0324,0.013523,0.002678,0.000431,0.000823
19586000,0.0324,0.013523,0.002678,0.000431,0.000823
19587000,0.0324,0.013523,0.002678,0.000431,0.000940
19588000,0.0324,0.013523,0.002678,0.000431,0.000705
19589000,0.0324,0.013523,0.002678,0.000431,0.000940
19590000,0.0324,0.013523,0.002678,0.000431,0.000823
19591000,0.0324,0.013523,0.002678,0.000431,0.000823
19592000,0.0324,0.013523,0.002678,0.000431,0.000940
19593000,0.0324,0.013523,0.002678,0.000431,0.000823
19594000,0.0324,0.013523,0.002678,0.000431,0.000823
19595000,0.0324,0.013523,0.002678,0.000431,0.000940
19596000,0.0324,0.013523,0.002678,0.000431,0.000940
19597000,0.0324,0.013523,0.002678,0.000431,0.000470
19598000,0.0324,0.013523,0.002678,0.000431,0.000470
19599000,0.0324,0.013523,0.002678,0.000431,0.000705
19600000,0.0324,0.013523,0.002678,0.000431,0.000588
19601000,0.0324,0.013523,0.002678,0.000431,0.000705
19602000,0.0324,0.013523,0.002678,0.000431,0.000823
19603000,0.0324,0.013523,0.002678,0.000431,0.000705
19604000,0.0324,0.013523,0.002678,0.000431,0.000705
19605000,0.0324,0.013523,0.002678,0.000431,0.000823
19606000,0.0324,0.013523,0.002678,0.000431,0.000823
19607000,0.0324,0.013523,0.002678,0.000431,0.000705
19608000,0.0324,0.013523,0.002678,0.000431,0.000588
19609000,0.0324,0.013523,0.002678,0.000431,0.000588
19610000,0.0324,0.013523,0.002678,0.000431,0.000940
19611000,0.0324,0.013523,0.002678,0.000431,0.000705
19612000,0.0324,0.013523,0.002678,0.000431,0.000940
19613000,0.0324,0.013523,0.002678,0.000431,0.000940
19614000,0.0324,0.013523,0.002678,0.000431,0.000940
19615000,0.0324,0.013523,0.002678,0.000431,0.000940
19616000,0.0324,0.013523,0.002678,0.000431,0.000705
19617000,0.0324,0.013523,0.002678,0.000431,0.000705
19618000,0.0324,0.013523,0.002678,0.000431,0.000940
19619000,0.0324,0.013523,0.002678,0.000431,0.000823
19620000,0.0324,0.013523,0.002678,0.000431,0.000823
19621000,0.0324,0.013523,0.002678,0.000431,0.000940
19622000,0.0324,0.013523,0.002678,0.000431,0.000588
19623000,0.0324,0.013523,0.002678,0.000431,0.000940
19624000,0.0324,0.013523,0.002678,0.000431,0.000823
19625000,0.0324,0.013523,0.002678,0.000431,0.000823
19626000,0.0324,0.013523,0.002678,0.000431,0.000823
19627000,0.0324,0.013523,0.002678,0.000431,0.000588
19628000,0.0324,0.013523,0.002678,0.000431,0.000940
19629000,0.0324,0.013523,0.002678,0.000431,0.000705
19630000,0.0324,0.013523,0.002678,0.000431,0.000588
19631000,0.0324,0.013523,0.002678,0.000431,0.000823
19632000,0.0324,0.013523,0.002678,0.000431,0.000823
19633000,0.0324,0.013523,0.002678,0.000431,0.000588
19634000,0.0324,0.013523,0.002678,0.000431,0.000588
19635000,0.0324,0.013523,0.002678,0.000431,0.000470
19636000,0.0324,0.013523,0.002678,0.000431,0.000705
19637000,0.0324,0.013523,0.002678,0.000431,0.000470
19638000,0.0324,0.013523,0.002678,0.000431,0.001058
19639000,0.0324,0.013523,0.002678,0.000431,0.000588
19640000,0.0324,0.013523,0.002678,0.000431,0.000705
19641000,0.0324,0.013523,0.002678,0.000431,0.000940
19642000,0.0324,0.013523,0.002678,0.000431,0.000470
19643000,0.0324,0.013523,0.002678,0.000431,0.001058
19644000,0.0324,0.013523,0.002678,0.000431,0.000823
19645000,0.0324,0.013523,0.002678,0.000431,0.000940
19646000,0.0324,0.013523,0.002678,0.000431,0.000940
19647000,0.0324,0.013523,0.002678,0.000431,0.000705
19648000,0.0324,0.013523,0.002678,0.000431,0.000470
19649000,0.0324,0.013523,0.002678,0.000431,0.001058
19650000,0.0324,0.013523,0.002678,0.000431,0.000588
19651000,0.0324,0.013523,0.002678,0.000431,0.000470
19652000,0.0324,0.013523,0.002678,0.000431,0.000705
19653000,0.0324,0.013523,0.002678,0.000431,0.000940
19654000,0.0324,0.013523,0.002678,0.000431,0.000705
19655000,0.0324,0.013523,0.002678,0.000431,0.000705
19656000,0.0324,0.013523,0.002678,0.000431,0.000823
19657000,0.0324,0.013523,0.002678,0.000431,0.000588
19658000,0.0324,0.013523,0.002678,0.000431,0.000823
19659000,0.0324,0.013523,0.002678,0.000431,0.000823
19660000,0.0324,0.013523,0.002678,0.000431,0.000940
19661000,0.0324,0.013523,0.002678,0.000431,0.000705
19662000,0.0324,0.013523,0.002678,0.000431,0.000705
19663000,0.0324,0.013523,0.002678,0.000431,0.000470
19664000,0.0324,0.013523,0.002678,0.000431,0.001058
19665000,0.0324,0.013523,0.002678,0.000431,0.001175
19666000,0.0324,0.013523,0.002678,0.000431,0.000588
19667000,0.0324,0.013523,0.002678,0.000431,0.000588
19668000,0.0324,0.013523,0.002678,0.000431,0.000588
19669000,0.0324,0.013523,0.002678,0.000431,0.000470
19670000,0.0324,0.013523,0.002678,0.000431,0.000705
19671000,0.0324,0.013523,0.002678,0.000431,0.000940
19672000,0.0324,0.013523,0.002678,0.000431,0.001175
19673000,0.0324,0.013523,0.002678,0.000431,0.000470
19674000,0.0324,0.013523,0.002678,0.000431,0.000940
19675000,0.0324,0.013523,0.002678,0.000431,0.000705
19676000,0.0324,0.013523,0.002678,0.000431,0.000470
19677000,0.0324,0.013523,0.002678,0.000431,0.000705
19678000,0.0324,0.013523,0.002678,0.000431,0.000940
19679000,0.0324,0.013523,0.002678,0.000431,0.000588
19680000,0.0324,0.013523,0.002678,0.000431,0.001058
19681000,0.0324,0.013523,0.002678,0.000431,0.000940
19682000,0.0324,0.013523,0.002678,0.000431,0.000940
19683000,0.0324,0.013523,0.002678,0.000431,0.000705
19684000,0.0324,0.013523,0.002678,0.000431,0.000588
19685000,0.0324,0.013523,0.002678,0.000431,0.000588
19686000,0.0324,0.013523,0.002678,0.000431,0.000940
19687000,0.0324,0.013523,0.002678,0.000431,0.000940
19688000,0.0324,0.013523,0.002678,0.000431,0.001058
19689000,0.0324,0.013523,0.002678,0.000431,0.001058
19690000,0.0324,0.013523,0.002678,0.000431,0.000705
19691000,0.0324,0.013523,0.002678,0.000431,0.001058
19692000,0.0324,0.013523,0.002678,0.000431,0.000940
19693000,0.0324,0.013523,0.002678,0.000431,0.000588
19694000,0.0324,0.013523,0.002678,0.000431,0.000823
19695000,0.0324,0.013523,0.002678,0.000431,0.000823
19696000,0.0324,0.013523,0.002678,0.000431,0.000705
19697000,0.0324,0.013523,0.002678,0.000431,0.000940
19698000,0.0324,0.013523,0.002678,0.000431,0.000588
19699000,0.0324,0.013523,0.002678,0.000431,0.000823
19700000,0.0324,0.013523,0.002678,0.000431,0.000705
19701000,0.0324,0.013523,0.002678,0.000431,0.000705
19702000,0.0324,0.013523,0.002678,0.000431,0.000705
19703000,0.0324,0.013523,0.002678,0.000431,0.000588
19704000,0.0324,0.013523,0.002678,0.000431,0.000588
19705000,0.0324,0.013523,0.002678,0.000431,0.000705
19706000,0.0324,0.013523,0.002678,0.000431,0.000940
19707000,0.0324,0.013523,0.002678,0.000431,0.000823
19708000,0.0324,0.013523,0.002678,0.000431,0.000823
19709000,0.0324,0.013523,0.002678,0.000431,0.000940
19710000,0.0324,0.013523,0.002678,0.000431,0.000823
19711000,0.0324,0.013523,0.002678,0.000431,0.000940
19712000,0.0324,0.013523,0.002678,0.000431,0.000823
19713000,0.0324,0.013523,0.002678,0.000431,0.000823
19714000,0.0324,0.013523,0.002678,0.000431,0.000823
19715000,0.0324,0.013523,0.002678,0.000431,0.000940
19716000,0.0324,0.013523,0.002678,0.000431,0.000705
19717000,0.0324,0.013523,0.002678,0.000431,0.000705
19718000,0.0324,0.013523,0.002678,0.000431,0.000940
19719000,0.0324,0.013523,0.002678,0.000431,0.000705
19720000,0.0324,0.013523,0.002678,0.000431,0.000588
19721000,0.0324,0.013523,0.002678,0.000431,0.000588
19722000,0.0324,0.013523,0.002678,0.000431,0.000940
19723000,0.0324,0.013523,0.002678,0.000431,0.000823
19724000,0.0324,0.013523,0.002678,0.000431,0.000588
19725000,0.0324,0.013523,0.002678,0.000431,0.000705
19726000,0.0324,0.013523,0.002678,0.000431,0.000940
19727000,0.0324,0.013523,0.002678,0.000431,0.000940
19728000,0.0324,0.013523,0.002678,0.000431,0.000940
19729000,0.0324,0.013523,0.002678,0.000431,0.000705
19730000,0.0324,0.013523,0.002678,0.000431,0.000823
19731000,0.0324,0.013523,0.002678,0.000431,0.000705
19732000,0.0324,0.013523,0.002678,0.000431,0.001058
19733000,0.0324,0.013523,0.002678,0.000431,0.000705
19734000,0.0324,0.013523,0.002678,0.000431,0.000705
19735000,0.0324,0.013523,0.002678,0.000431,0.000940
19736000,0.0324,0.013523,0.002678,0.000431,0.000705
19737000,0.0324,0.013523,0.002678,0.000431,0.000823
19738000,0.0324,0.013523,0.002678,0.000431,0.000705
19739000,0.0324,0.013523,0.002678,0.000431,0.000823
19740000,0.0324,0.013523,0.002678,0.000431,0.001058
19741000,0.0324,0.013523,0.002678,0.000431,0.000588
19742000,0.0324,0.013523,0.002678,0.000431,0.000588
19743000,0.0324,0.013523,0.002678,0.000431,0.000588
19744000,0.0324,0.013523,0.002678,0.000431,0.000705
19745000,0.0324,0.013523,0.002678,0.000431,0.000940
19746000,0.0324,0.013523,0.002678,0.000431,0.001058
19747000,0.0324,0.013523,0.002678,0.000431,0.001058
19748000,0.0324,0.013523,0.002678,0.000431,0.000470
19749000,0.0324,0.013523,0.002678,0.000431,0.000705
19750000,0.0324,0.013523,0.002678,0.000431,0.000940
19751000,0.0324,0.013523,0.002678,0.000431,0.000588
19752000,0.0324,0.013523,0.002678,0.000431,0.000823
19753000,0.0324,0.013523,0.002678,0.000431,0.000823
19754000,0.0324,0.013523,0.002678,0.000431,0.000588
19755000,0.0324,0.013523,0.002678,0.000431,0.000588
19756000,0.0324,0.013523,0.002678,0.000431,0.000823
19757000,0.0324,0.013523,0.002678,0.000431,0.000705
19758000,0.0324,0.013523,0.002678,0.000431,0.001058
19759000,0.0324,0.013523,0.002678,0.000431,0.000940
19760000,0.0324,0.013523,0.002678,0.000431,0.000588
19761000,0.0324,0.013523,0.002678,0.000431,0.001058
19762000,0.0324,0.013523,0.002678,0.000431,0.000823
19763000,0.0324,0.013523,0.002678,0.000431,0.000705
19764000,0.0324,0.013523,0.002678,0.000431,0.000470
19765000,0.0324,0.013523,0.002678,0.000431,0.000705
19766000,0.0324,0.013523,0.002678,0.000431,0.000940
19767000,0.0324,0.013523,0.002678,0.000431,0.000705
19768000,0.0324,0.013523,0.002678,0.000431,0.000940
19769000,0.0324,0.013523,0.002678,0.000431,0.000705
19770000,0.0324,0.013523,0.002678,0.000431,0.000940
19771000,0.0324,0.013523,0.002678,0.000431,0.000705
19772000,0.0324,0.013523,0.002678,0.000431,0.001058
19773000,0.0324,0.013523,0.002678,0.000431,0.000588
19774000,0.0324,0.013523,0.002678,0.000431,0.000940
19775000,0.0324,0.013523,0.002678,0.000431,0.000823
19776000,0.0324,0.013523,0.002678,0.000431,0.000940
19777000,0.0324,0.013523,0.002678,0.000431,0.001175
19778000,0.0324,0.013523,0.002678,0.000431,0.001058
19779000,0.0324,0.013523,0.002678,0.000431,0.001058
19780000,0.0324,0.013523,0.002678,0.000431,0.000823
19781000,0.0324,0.013523,0.002678,0.000431,0.000705
19782000,0.0324,0.013523,0.002678,0.000431,0.000705
19783000,0.0324,0.013523,0.002678,0.000431,0.001175
19784000,0.0324,0.013523,0.002678,0.000431,0.000470
19785000,0.0324,0.013523,0.002678,0.000431,0.000705
19786000,0.0324,0.013523,0.002678,0.000431,0.000705
19787000,0.0324,0.013523,0.002678,0.000431,0.000940
19788000,0.0324,0.013523,0.002678,0.000431,0.000940
19789000,0.0324,0.013523,0.002678,0.000431,0.000940
19790000,0.0324,0.013523,0.002678,0.000431,0.000588
19791000,0.0324,0.013523,0.002678,0.000431,0.000940
19792000,0.0324,0.013523,0.002678,0.000431,0.000588
19793000,0.0324,0.013523,0.002678,0.000431,0.000940
19794000,0.0324,0.013523,0.002678,0.000431,0.000705
19795000,0.0324,0.013523,0.002678,0.000431,0.000705
19796000,0.0324,0.013523,0.002678,0.000431,0.000940
19797000,0.0324,0.013523,0.002678,0.000431,0.000588
19798000,0.0324,0.013523,0.002678,0.000431,0.000588
19799000,0.0324,0.013523,0.002678,0.000431,0.000705
19800000,0.0324,0.013523,0.002678,0.000431,0.000940
19801000,0.0324,0.013523,0.002678,0.000431,0.000940
19802000,0.0324,0.013523,0.002678,0.000431,0.001058
19803000,0.0324,0.013523,0.002678,0.000431,0.000823
19804000,0.0324,0.013523,0.002678,0.000431,0.000470
19805000,0.0324,0.013523,0.002678,0.000431,0.000940
19806000,0.0324,0.013523,0.002678,0.000431,0.001058
19807000,0.0324,0.013523,0.002678,0.000431,0.000588
19808000,0.0324,0.013523,0.002678,0.000431,0.000588
19809000,0.0324,0.013523,0.002678,0.000431,0.000588
19810000,0.0324,0.013523,0.002678,0.000431,0.000588
19811000,0.0324,0.013523,0.002678,0.000431,0.000588
19812000,0.0324,0.013523,0.002678,0.000431,0.000823
19813000,0.0324,0.013523,0.002678,0.000431,0.000823
19814000,0.0324,0.013523,0.002678,0.000431,0.000705
19815000,0.0324,0.013523,0.002678,0.000431,0.000940
19816000,0.0324,0.013523,0.002678,0.000431,0.000940
19817000,0.0324,0.013523,0.002678,0.000431,0.000940
19818000,0.0324,0.013523,0.002678,0.000431,0.000823
19819000,0.0324,0.013523,0.002678,0.000431,0.000823
19820000,0.0324,0.013523,0.002678,0.000431,0.000940
19821000,0.0324,0.013523,0.002678,0.000431,0.001058
19822000,0.0324,0.013523,0.002678,0.000431,0.000823
19823000,0.0324,0.013523,0.002678,0.000431,0.000705
19824000,0.0324,0.013523,0.002678,0.000431,0.000705
19825000,0.0324,0.013523,0.002678,0.000431,0.000470
19826000,0.0324,0.013523,0.002678,0.000431,0.000705
19827000,0.0324,0.013523,0.002678,0.000431,0.000588
19828000,0.0324,0.013523,0.002678,0.000431,0.001058
19829000,0.0324,0.013523,0.002678,0.000431,0.000470
19830000,0.0324,0.013523,0.002678,0.000431,0.000705
19831000,0.0324,0.013523,0.002678,0.000431,0.000940
19832000,0.0324,0.013523,0.002678,0.000431,0.000588
19833000,0.0324,0.013523,0.002678,0.000431,0.000588
19834000,0.0324,0.013523,0.002678,0.000431,0.000705
19835000,0.0324,0.013523,0.002678,0.000431,0.000705
19836000,0.0324,0.013523,0.002678,0.000431,0.000705
19837000,0.0324,0.013523,0.002678,0.000431,0.001175
19838000,0.0324,0.013523,0.002678,0.000431,0.000823
19839000,0.0324,0.013523,0.002678,0.000431,0.000823
19840000,0.0324,0.013523,0.002678,0.000431,0.001058
19841000,0.0324,0.013523,0.002678,0.000431,0.001058
19842000,0.0324,0.013523,0.002678,0.000431,0.000705
19843000,0.0324,0.013523,0.002678,0.000431,0.000470
19844000,0.0324,0.013523,0.002678,0.000431,0.001058
19845000,0.0324,0.013523,0.002678,0.000431,0.000940
19846000,0.0324,0.013523,0.002678,0.000431,0.000823
19847000,0.0324,0.013523,0.002678,0.000431,0.000823
19848000,0.0324,0.013523,0.002678,0.000431,0.000588
19849000,0.0324,0.013523,0.002678,0.000431,0.000470
19850000,0.0324,0.013523,0.002678,0.000431,0.000940
19851000,0.0324,0.013523,0.002678,0.000431,0.000705
19852000,0.0324,0.013523,0.002678,0.000431,0.000705
19853000,0.0324,0.013523,0.002678,0.000431,0.000940
19854000,0.0324,0.013523,0.002678,0.000431,0.000940
19855000,0.0324,0.013523,0.002678,0.000431,0.001058
19856000,0.0324,0.013523,0.002678,0.000431,0.000588
19857000,0.0324,0.013523,0.002678,0.000431,0.001058
19858000,0.0324,0.013523,0.002678,0.000431,0.000588
19859000,0.0324,0.013523,0.002678,0.000431,0.001058
19860000,0.0324,0.013523,0.002678,0.000431,0.000940
19861000,0.0324,0.013523,0.002678,0.000431,0.000823
19862000,0.0324,0.013523,0.002678,0.000431,0.000705
19863000,0.0324,0.013523,0.002678,0.000431,0.001175
19864000,0.0324,0.013523,0.002678,0.000431,0.000705
19865000,0.0324,0.013523,0.002678,0.000431,0.000470
19866000,0.0324,0.013523,0.002678,0.000431,0.000823
19867000,0.0324,0.013523,0.002678,0.000431,0.000823
19868000,0.0324,0.013523,0.002678,0.000431,0.001175
19869000,0.0324,0.013523,0.002678,0.000431,0.000940
19870000,0.0324,0.013523,0.002678,0.000431,0.000588
19871000,0.0324,0.013523,0.002678,0.000431,0.000588
19872000,0.0324,0.013523,0.002678,0.000431,0.000940
19873000,0.0324,0.013523,0.002678,0.000431,0.000588
19874000,0.0324,0.013523,0.002678,0.000431,0.000588
19875000,0.0324,0.013523,0.002678,0.000431,0.000588
19876000,0.0324,0.013523,0.002678,0.000431,0.000588
19877000,0.0324,0.013523,0.002678,0.000431,0.000705
19878000,0.0324,0.013523,0.002678,0.000431,0.000823
19879000,0.0324,0.013523,0.002678,0.000431,0.000940
19880000,0.0324,0.013523,0.002678,0.000431,0.000940
19881000,0.0324,0.013523,0.002678,0.000431,0.000823
19882000,0.0324,0.013523,0.002678,0.000431,0.000940
19883000,0.0324,0.013523,0.002678,0.000431,0.001058
19884000,0.0324,0.013523,0.002678,0.000431,0.001058
19885000,0.0324,0.013523,0.002678,0.000431,0.000940
19886000,0.0324,0.013523,0.002678,0.000431,0.001058
19887000,0.0324,0.013523,0.002678,0.000431,0.000588
19888000,0.0324,0.013523,0.002678,0.000431,0.000940
19889000,0.0324,0.013523,0.002678,0.000431,0.000705
19890000,0.0324,0.013523,0.002678,0.000431,0.000940
19891000,0.0324,0.013523,0.002678,0.000431,0.000823
19892000,0.0324,0.013523,0.002678,0.000431,0.000823
19893000,0.0324,0.013523,0.002678,0.000431,0.000823
19894000,0.0324,0.013523,0.002678,0.000431,0.000823
19895000,0.0324,0.013523,0.002678,0.000431,0.000705
19896000,0.0324,0.013523,0.002678,0.000431,0.000940
19897000,0.0324,0.013523,0.002678,0.000431,0.001058
19898000,0.0324,0.013523,0.002678,0.000431,0.000823
19899000,0.0324,0.013523,0.002678,0.000431,0.000705
19900000,0.0324,0.013523,0.002678,0.000431,0.000823
19901000,0.0324,0.013523,0.002678,0.000431,0.000588
19902000,0.0324,0.013523,0.002678,0.000431,0.000940
19903000,0.0324,0.013523,0.002678,0.000431,0.000823
19904000,0.0324,0.013523,0.002678,0.000431,0.001058
19905000,0.0324,0.013523,0.002678,0.000431,0.000940
19906000,0.0324,0.013523,0.002678,0.000431,0.000940
19907000,0.0324,0.013523,0.002678,0.000431,0.000940
19908000,0.0324,0.013523,0.002678,0.000431,0.000705
19909000,0.0324,0.013523,0.002678,0.000431,0.000705
19910000,0.0324,0.013523,0.002678,0.000431,0.000705
19911000,0.0324,0.013523,0.002678,0.000431,0.000705
19912000,0.0324,0.013523,0.002678,0.000431,0.001058
19913000,0.0324,0.013523,0.002678,0.000431,0.001058
19914000,0.0324,0.013523,0.002678,0.000431,0.000940
19915000,0.0324,0.013523,0.002678,0.000431,0.000823
19916000,0.0324,0.013523,0.002678,0.000431,0.000823
19917000,0.0324,0.013523,0.002678,0.000431,0.000940
19918000,0.0324,0.013523,0.002678,0.000431,0.000705
19919000,0.0324,0.013523,0.002678,0.000431,0.000470
19920000,0.0324,0.013523,0.002678,0.000431,0.001058
19921000,0.0324,0.013523,0.002678,0.000431,0.000588
19922000,0.0324,0.013523,0.002678,0.000431,0.000705
19923000,0.0324,0.013523,0.002678,0.000431,0.000940
19924000,0.0324,0.013523,0.002678,0.000431,0.000705
19925000,0.0324,0.013523,0.002678,0.000431,0.000470
19926000,0.0324,0.013523,0.002678,0.000431,0.001058
19927000,0.0324,0.013523,0.002678,0.000431,0.000588
19928000,0.0324,0.013523,0.002678,0.000431,0.000705
19929000,0.0324,0.013523,0.002678,0.000431,0.001058
19930000,0.0324,0.013523,0.002678,0.000431,0.001058
19931000,0.0324,0.013523,0.002678,0.000431,0.000705
19932000,0.0324,0.013523,0.002678,0.000431,0.001058
19933000,0.0324,0.013523,0.002678,0.000431,0.000588
19934000,0.0324,0.013523,0.002678,0.000431,0.000705
19935000,0.0324,0.013523,0.002678,0.000431,0.000940
19936000,0.0324,0.013523,0.002678,0.000431,0.000588
19937000,0.0324,0.013523,0.002678,0.000431,0.000940
19938000,0.0324,0.013523,0.002678,0.000431,0.000588
19939000,0.0324,0.013523,0.002678,0.000431,0.000705
19940000,0.0324,0.013523,0.002678,0.000431,0.000940
19941000,0.0324,0.013523,0.002678,0.000431,0.000470
19942000,0.0324,0.013523,0.002678,0.000431,0.001058
19943000,0.0324,0.013523,0.002678,0.000431,0.000588
19944000,0.0324,0.013523,0.002678,0.000431,0.000705
19945000,0.0324,0.013523,0.002678,0.000431,0.000940
19946000,0.0324,0.013523,0.002678,0.000431,0.000705
19947000,0.0324,0.013523,0.002678,0.000431,0.000823
19948000,0.0324,0.013523,0.002678,0.000431,0.000705
19949000,0.0324,0.013523,0.002678,0.000431,0.000588
19950000,0.0324,0.013523,0.002678,0.000431,0.000940
19951000,0.0324,0.013523,0.002678,0.000431,0.000705
19952000,0.0324,0.013523,0.002678,0.000431,0.000940
19953000,0.0324,0.013523,0.002678,0.000431,0.000705
19954000,0.0324,0.013523,0.002678,0.000431,0.000823
19955000,0.0324,0.013523,0.002678,0.000431,0.001058
19956000,0.0324,0.013523,0.002678,0.000431,0.000940
19957000,0.0324,0.013523,0.002678,0.000431,0.000705
19958000,0.0324,0.013523,0.002678,0.000431,0.001058
19959000,0.0324,0.013523,0.002678,0.000431,0.001058
19960000,0.0324,0.013523,0.002678,0.000431,0.000940
19961000,0.0324,0.013523,0.002678,0.000431,0.000940
19962000,0.0324,0.013523,0.002678,0.000431,0.000940
19963000,0.0324,0.013523,0.002678,0.000431,0.001175
19964000,0.0324,0.013523,0.002678,0.000431,0.000940
19965000,0.0324,0.013523,0.002678,0.000431,0.000823
19966000,0.0324,0.013523,0.002678,0.000431,0.000823
19967000,0.0324,0.013523,0.002678,0.000431,0.000705
19968000,0.0324,0.013523,0.002678,0.000431,0.000940
19969000,0.0324,0.013523,0.002678,0.000431,0.000705
19970000,0.0324,0.013523,0.002678,0.000431,0.000470
19971000,0.0324,0.013523,0.002678,0.000431,0.001058
19972000,0.0324,0.013523,0.002678,0.000431,0.001175
19973000,0.0324,0.013523,0.002678,0.000431,0.000588
19974000,0.0324,0.013523,0.002678,0.000431,0.000940
19975000,0.0324,0.013523,0.002678,0.000431,0.000705
19976000,0.0324,0.013523,0.002678,0.000431,0.001175
19977000,0.0324,0.013523,0.002678,0.000431,0.000940
19978000,0.0324,0.013523,0.002678,0.000431,0.000470
19979000,0.0324,0.013523,0.002678,0.000431,0.001058
19980000,0.0324,0.013523,0.002678,0.000431,0.000588
19981000,0.0324,0.013523,0.002678,0.000431,0.001058
19982000,0.0324,0.013523,0.002678,0.000431,0.000588
19983000,0.0324,0.013523,0.002678,0.000431,0.000940
19984000,0.0324,0.013523,0.002678,0.000431,0.000588
19985000,0.0324,0.013523,0.002678,0.000431,0.000823
19986000,0.0324,0.013523,0.002678,0.000431,0.000940
19987000,0.0324,0.013523,0.002678,0.000431,0.000823
19988000,0.0324,0.013523,0.002678,0.000431,0.000588
19989000,0.0324,0.013523,0.002678,0.000431,0.000705
19990000,0.0324,0.013523,0.002678,0.000431,0.000705
19991000,0.0324,0.013523,0.002678,0.000431,0.000823
19992000,0.0324,0.013523,0.002678,0.000431,0.000823
19993000,0.0324,0.013523,0.002678,0.000431,0.001058
19994000,0.0324,0.013523,0.002678,0.000431,0.000823
19995000,0.0324,0.013523,0.002678,0.000431,0.000705
19996000,0.0324,0.013523,0.002678,0.000431,0.000940
19997000,0.0324,0.013523,0.002678,0.000431,0.000470
19998000,0.0324,0.013523,0.002678,0.000431,0.000705
19999000,0.0324,0.013523,0.002678,0.000431,0.000940
