Cycle,Area(mm^2),PeakDynamic(W),SubthresholdLeakage(W),GateLeakage(W),RunTimeDynamic(W)
20000000,0.0324,0.013523,0.002678,0.000431,0.000705
20001000,0.0324,0.013523,0.002678,0.000431,0.000940
20002000,0.0324,0.013523,0.002678,0.000431,0.000705
20003000,0.0324,0.013523,0.002678,0.000431,0.000823
20004000,0.0324,0.013523,0.002678,0.000431,0.000588
20005000,0.0324,0.013523,0.002678,0.000431,0.000588
20006000,0.0324,0.013523,0.002678,0.000431,0.000588
20007000,0.0324,0.013523,0.002678,0.000431,0.000705
20008000,0.0324,0.013523,0.002678,0.000431,0.000470
20009000,0.0324,0.013523,0.002678,0.000431,0.000705
20010000,0.0324,0.013523,0.002678,0.000431,0.000588
20011000,0.0324,0.013523,0.002678,0.000431,0.000940
20012000,0.0324,0.013523,0.002678,0.000431,0.000823
20013000,0.0324,0.013523,0.002678,0.000431,0.000940
20014000,0.0324,0.013523,0.002678,0.000431,0.000823
20015000,0.0324,0.013523,0.002678,0.000431,0.000823
20016000,0.0324,0.013523,0.002678,0.000431,0.000823
20017000,0.0324,0.013523,0.002678,0.000431,0.000588
20018000,0.0324,0.013523,0.002678,0.000431,0.000940
20019000,0.0324,0.013523,0.002678,0.000431,0.001058
20020000,0.0324,0.013523,0.002678,0.000431,0.000588
20021000,0.0324,0.013523,0.002678,0.000431,0.000940
20022000,0.0324,0.013523,0.002678,0.000431,0.001058
20023000,0.0324,0.013523,0.002678,0.000431,0.000940
20024000,0.0324,0.013523,0.002678,0.000431,0.000588
20025000,0.0324,0.013523,0.002678,0.000431,0.001058
20026000,0.0324,0.013523,0.002678,0.000431,0.000588
20027000,0.0324,0.013523,0.002678,0.000431,0.000705
20028000,0.0324,0.013523,0.002678,0.000431,0.000823
20029000,0.0324,0.013523,0.002678,0.000431,0.000823
20030000,0.0324,0.013523,0.002678,0.000431,0.000940
20031000,0.0324,0.013523,0.002678,0.000431,0.000470
20032000,0.0324,0.013523,0.002678,0.000431,0.001175
20033000,0.0324,0.013523,0.002678,0.000431,0.000470
20034000,0.0324,0.013523,0.002678,0.000431,0.000705
20035000,0.0324,0.013523,0.002678,0.000431,0.000823
20036000,0.0324,0.013523,0.002678,0.000431,0.000823
20037000,0.0324,0.013523,0.002678,0.000431,0.000823
20038000,0.0324,0.013523,0.002678,0.000431,0.000588
20039000,0.0324,0.013523,0.002678,0.000431,0.000823
20040000,0.0324,0.013523,0.002678,0.000431,0.000823
20041000,0.0324,0.013523,0.002678,0.000431,0.000823
20042000,0.0324,0.013523,0.002678,0.000431,0.000823
20043000,0.0324,0.013523,0.002678,0.000431,0.000823
20044000,0.0324,0.013523,0.002678,0.000431,0.000940
20045000,0.0324,0.013523,0.002678,0.000431,0.000823
20046000,0.0324,0.013523,0.002678,0.000431,0.000470
20047000,0.0324,0.013523,0.002678,0.000431,0.000940
20048000,0.0324,0.013523,0.002678,0.000431,0.000705
20049000,0.0324,0.013523,0.002678,0.000431,0.000705
20050000,0.0324,0.013523,0.002678,0.000431,0.000940
20051000,0.0324,0.013523,0.002678,0.000431,0.000705
20052000,0.0324,0.013523,0.002678,0.000431,0.000470
20053000,0.0324,0.013523,0.002678,0.000431,0.000705
20054000,0.0324,0.013523,0.002678,0.000431,0.000470
20055000,0.0324,0.013523,0.002678,0.000431,0.000940
20056000,0.0324,0.013523,0.002678,0.000431,0.000940
20057000,0.0324,0.013523,0.002678,0.000431,0.000705
20058000,0.0324,0.013523,0.002678,0.000431,0.000705
20059000,0.0324,0.013523,0.002678,0.000431,0.000705
20060000,0.0324,0.013523,0.002678,0.000431,0.000823
20061000,0.0324,0.013523,0.002678,0.000431,0.000588
20062000,0.0324,0.013523,0.002678,0.000431,0.000470
20063000,0.0324,0.013523,0.002678,0.000431,0.000705
20064000,0.0324,0.013523,0.002678,0.000431,0.000705
20065000,0.0324,0.013523,0.002678,0.000431,0.000588
20066000,0.0324,0.013523,0.002678,0.000431,0.000588
20067000,0.0324,0.013523,0.002678,0.000431,0.000470
20068000,0.0324,0.013523,0.002678,0.000431,0.000705
20069000,0.0324,0.013523,0.002678,0.000431,0.000470
20070000,0.0324,0.013523,0.002678,0.000431,0.000705
20071000,0.0324,0.013523,0.002678,0.000431,0.000705
20072000,0.0324,0.013523,0.002678,0.000431,0.000940
20073000,0.0324,0.013523,0.002678,0.000431,0.000823
20074000,0.0324,0.013523,0.002678,0.000431,0.000940
20075000,0.0324,0.013523,0.002678,0.000431,0.000823
20076000,0.0324,0.013523,0.002678,0.000431,0.000588
20077000,0.0324,0.013523,0.002678,0.000431,0.000940
20078000,0.0324,0.013523,0.002678,0.000431,0.000823
20079000,0.0324,0.013523,0.002678,0.000431,0.000470
20080000,0.0324,0.013523,0.002678,0.000431,0.000705
20081000,0.0324,0.013523,0.002678,0.000431,0.000705
20082000,0.0324,0.013523,0.002678,0.000431,0.000940
20083000,0.0324,0.013523,0.002678,0.000431,0.000588
20084000,0.0324,0.013523,0.002678,0.000431,0.000588
20085000,0.0324,0.013523,0.002678,0.000431,0.000940
20086000,0.0324,0.013523,0.002678,0.000431,0.000588
20087000,0.0324,0.013523,0.002678,0.000431,0.000823
20088000,0.0324,0.013523,0.002678,0.000431,0.000823
20089000,0.0324,0.013523,0.002678,0.000431,0.000588
20090000,0.0324,0.013523,0.002678,0.000431,0.000940
20091000,0.0324,0.013523,0.002678,0.000431,0.001058
20092000,0.0324,0.013523,0.002678,0.000431,0.000588
20093000,0.0324,0.013523,0.002678,0.000431,0.000705
20094000,0.0324,0.013523,0.002678,0.000431,0.000705
20095000,0.0324,0.013523,0.002678,0.000431,0.000823
20096000,0.0324,0.013523,0.002678,0.000431,0.000940
20097000,0.0324,0.013523,0.002678,0.000431,0.000940
20098000,0.0324,0.013523,0.002678,0.000431,0.000705
20099000,0.0324,0.013523,0.002678,0.000431,0.000940
20100000,0.0324,0.013523,0.002678,0.000431,0.000588
20101000,0.0324,0.013523,0.002678,0.000431,0.000705
20102000,0.0324,0.013523,0.002678,0.000431,0.000940
20103000,0.0324,0.013523,0.002678,0.000431,0.000588
20104000,0.0324,0.013523,0.002678,0.000431,0.000823
20105000,0.0324,0.013523,0.002678,0.000431,0.000940
20106000,0.0324,0.013523,0.002678,0.000431,0.000940
20107000,0.0324,0.013523,0.002678,0.000431,0.000940
20108000,0.0324,0.013523,0.002678,0.000431,0.000940
20109000,0.0324,0.013523,0.002678,0.000431,0.000705
20110000,0.0324,0.013523,0.002678,0.000431,0.000940
20111000,0.0324,0.013523,0.002678,0.000431,0.000940
20112000,0.0324,0.013523,0.002678,0.000431,0.000823
20113000,0.0324,0.013523,0.002678,0.000431,0.000823
20114000,0.0324,0.013523,0.002678,0.000431,0.000940
20115000,0.0324,0.013523,0.002678,0.000431,0.000705
20116000,0.0324,0.013523,0.002678,0.000431,0.000940
20117000,0.0324,0.013523,0.002678,0.000431,0.000940
20118000,0.0324,0.013523,0.002678,0.000431,0.000705
20119000,0.0324,0.013523,0.002678,0.000431,0.000823
20120000,0.0324,0.013523,0.002678,0.000431,0.001058
20121000,0.0324,0.013523,0.002678,0.000431,0.000588
20122000,0.0324,0.013523,0.002678,0.000431,0.000588
20123000,0.0324,0.013523,0.002678,0.000431,0.000940
20124000,0.0324,0.013523,0.002678,0.000431,0.000588
20125000,0.0324,0.013523,0.002678,0.000431,0.000588
20126000,0.0324,0.013523,0.002678,0.000431,0.000940
20127000,0.0324,0.013523,0.002678,0.000431,0.000705
20128000,0.0324,0.013523,0.002678,0.000431,0.000823
20129000,0.0324,0.013523,0.002678,0.000431,0.000823
20130000,0.0324,0.013523,0.002678,0.000431,0.000940
20131000,0.0324,0.013523,0.002678,0.000431,0.000705
20132000,0.0324,0.013523,0.002678,0.000431,0.000823
20133000,0.0324,0.013523,0.002678,0.000431,0.000823
20134000,0.0324,0.013523,0.002678,0.000431,0.000940
20135000,0.0324,0.013523,0.002678,0.000431,0.000705
20136000,0.0324,0.013523,0.002678,0.000431,0.000823
20137000,0.0324,0.013523,0.002678,0.000431,0.000823
20138000,0.0324,0.013523,0.002678,0.000431,0.000705
20139000,0.0324,0.013523,0.002678,0.000431,0.000705
20140000,0.0324,0.013523,0.002678,0.000431,0.000940
20141000,0.0324,0.013523,0.002678,0.000431,0.000588
20142000,0.0324,0.013523,0.002678,0.000431,0.000705
20143000,0.0324,0.013523,0.002678,0.000431,0.000823
20144000,0.0324,0.013523,0.002678,0.000431,0.000940
20145000,0.0324,0.013523,0.002678,0.000431,0.000705
20146000,0.0324,0.013523,0.002678,0.000431,0.000940
20147000,0.0324,0.013523,0.002678,0.000431,0.000940
20148000,0.0324,0.013523,0.002678,0.000431,0.000940
20149000,0.0324,0.013523,0.002678,0.000431,0.000823
20150000,0.0324,0.013523,0.002678,0.000431,0.000823
20151000,0.0324,0.013523,0.002678,0.000431,0.000588
20152000,0.0324,0.013523,0.002678,0.000431,0.000940
20153000,0.0324,0.013523,0.002678,0.000431,0.000588
20154000,0.0324,0.013523,0.002678,0.000431,0.000588
20155000,0.0324,0.013523,0.002678,0.000431,0.000588
20156000,0.0324,0.013523,0.002678,0.000431,0.000588
20157000,0.0324,0.013523,0.002678,0.000431,0.000940
20158000,0.0324,0.013523,0.002678,0.000431,0.000588
20159000,0.0324,0.013523,0.002678,0.000431,0.000588
20160000,0.0324,0.013523,0.002678,0.000431,0.000940
20161000,0.0324,0.013523,0.002678,0.000431,0.000823
20162000,0.0324,0.013523,0.002678,0.000431,0.000823
20163000,0.0324,0.013523,0.002678,0.000431,0.001058
20164000,0.0324,0.013523,0.002678,0.000431,0.000470
20165000,0.0324,0.013523,0.002678,0.000431,0.000705
20166000,0.0324,0.013523,0.002678,0.000431,0.000823
20167000,0.0324,0.013523,0.002678,0.000431,0.000940
20168000,0.0324,0.013523,0.002678,0.000431,0.001175
20169000,0.0324,0.013523,0.002678,0.000431,0.000940
20170000,0.0324,0.013523,0.002678,0.000431,0.001175
20171000,0.0324,0.013523,0.002678,0.000431,0.000940
20172000,0.0324,0.013523,0.002678,0.000431,0.000823
20173000,0.0324,0.013523,0.002678,0.000431,0.000940
20174000,0.0324,0.013523,0.002678,0.000431,0.000705
20175000,0.0324,0.013523,0.002678,0.000431,0.000940
20176000,0.0324,0.013523,0.002678,0.000431,0.000705
20177000,0.0324,0.013523,0.002678,0.000431,0.000470
20178000,0.0324,0.013523,0.002678,0.000431,0.001058
20179000,0.0324,0.013523,0.002678,0.000431,0.000588
20180000,0.0324,0.013523,0.002678,0.000431,0.000940
20181000,0.0324,0.013523,0.002678,0.000431,0.000705
20182000,0.0324,0.013523,0.002678,0.000431,0.001058
20183000,0.0324,0.013523,0.002678,0.000431,0.000940
20184000,0.0324,0.013523,0.002678,0.000431,0.000588
20185000,0.0324,0.013523,0.002678,0.000431,0.000705
20186000,0.0324,0.013523,0.002678,0.000431,0.000705
20187000,0.0324,0.013523,0.002678,0.000431,0.000470
20188000,0.0324,0.013523,0.002678,0.000431,0.000940
20189000,0.0324,0.013523,0.002678,0.000431,0.000823
20190000,0.0324,0.013523,0.002678,0.000431,0.000823
20191000,0.0324,0.013523,0.002678,0.000431,0.000940
20192000,0.0324,0.013523,0.002678,0.000431,0.000705
20193000,0.0324,0.013523,0.002678,0.000431,0.000940
20194000,0.0324,0.013523,0.002678,0.000431,0.001058
20195000,0.0324,0.013523,0.002678,0.000431,0.000940
20196000,0.0324,0.013523,0.002678,0.000431,0.000823
20197000,0.0324,0.013523,0.002678,0.000431,0.000940
20198000,0.0324,0.013523,0.002678,0.000431,0.000940
20199000,0.0324,0.013523,0.002678,0.000431,0.000940
20200000,0.0324,0.013523,0.002678,0.000431,0.000588
20201000,0.0324,0.013523,0.002678,0.000431,0.000823
20202000,0.0324,0.013523,0.002678,0.000431,0.000705
20203000,0.0324,0.013523,0.002678,0.000431,0.000588
20204000,0.0324,0.013523,0.002678,0.000431,0.000588
20205000,0.0324,0.013523,0.002678,0.000431,0.000470
20206000,0.0324,0.013523,0.002678,0.000431,0.000705
20207000,0.0324,0.013523,0.002678,0.000431,0.000940
20208000,0.0324,0.013523,0.002678,0.000431,0.000940
20209000,0.0324,0.013523,0.002678,0.000431,0.000705
20210000,0.0324,0.013523,0.002678,0.000431,0.000823
20211000,0.0324,0.013523,0.002678,0.000431,0.000588
20212000,0.0324,0.013523,0.002678,0.000431,0.000705
20213000,0.0324,0.013523,0.002678,0.000431,0.000470
20214000,0.0324,0.013523,0.002678,0.000431,0.000705
20215000,0.0324,0.013523,0.002678,0.000431,0.000940
20216000,0.0324,0.013523,0.002678,0.000431,0.000588
20217000,0.0324,0.013523,0.002678,0.000431,0.000588
20218000,0.0324,0.013523,0.002678,0.000431,0.000940
20219000,0.0324,0.013523,0.002678,0.000431,0.000588
20220000,0.0324,0.013523,0.002678,0.000431,0.000940
20221000,0.0324,0.013523,0.002678,0.000431,0.000588
20222000,0.0324,0.013523,0.002678,0.000431,0.000823
20223000,0.0324,0.013523,0.002678,0.000431,0.000823
20224000,0.0324,0.013523,0.002678,0.000431,0.000940
20225000,0.0324,0.013523,0.002678,0.000431,0.000823
20226000,0.0324,0.013523,0.002678,0.000431,0.000823
20227000,0.0324,0.013523,0.002678,0.000431,0.000940
20228000,0.0324,0.013523,0.002678,0.000431,0.000940
20229000,0.0324,0.013523,0.002678,0.000431,0.000705
20230000,0.0324,0.013523,0.002678,0.000431,0.000470
20231000,0.0324,0.013523,0.002678,0.000431,0.000823
20232000,0.0324,0.013523,0.002678,0.000431,0.000823
20233000,0.0324,0.013523,0.002678,0.000431,0.000940
20234000,0.0324,0.013523,0.002678,0.000431,0.000823
20235000,0.0324,0.013523,0.002678,0.000431,0.000940
20236000,0.0324,0.013523,0.002678,0.000431,0.000588
20237000,0.0324,0.013523,0.002678,0.000431,0.000705
20238000,0.0324,0.013523,0.002678,0.000431,0.000705
20239000,0.0324,0.013523,0.002678,0.000431,0.000470
20240000,0.0324,0.013523,0.002678,0.000431,0.000823
20241000,0.0324,0.013523,0.002678,0.000431,0.001058
20242000,0.0324,0.013523,0.002678,0.000431,0.001175
20243000,0.0324,0.013523,0.002678,0.000431,0.000823
20244000,0.0324,0.013523,0.002678,0.000431,0.000940
20245000,0.0324,0.013523,0.002678,0.000431,0.000588
20246000,0.0324,0.013523,0.002678,0.000431,0.000588
20247000,0.0324,0.013523,0.002678,0.000431,0.001058
20248000,0.0324,0.013523,0.002678,0.000431,0.000823
20249000,0.0324,0.013523,0.002678,0.000431,0.000823
20250000,0.0324,0.013523,0.002678,0.000431,0.000470
20251000,0.0324,0.013523,0.002678,0.000431,0.000940
20252000,0.0324,0.013523,0.002678,0.000431,0.000940
20253000,0.0324,0.013523,0.002678,0.000431,0.000940
20254000,0.0324,0.013523,0.002678,0.000431,0.000940
20255000,0.0324,0.013523,0.002678,0.000431,0.000940
20256000,0.0324,0.013523,0.002678,0.000431,0.000940
20257000,0.0324,0.013523,0.002678,0.000431,0.000705
20258000,0.0324,0.013523,0.002678,0.000431,0.000940
20259000,0.0324,0.013523,0.002678,0.000431,0.001175
20260000,0.0324,0.013523,0.002678,0.000431,0.000823
20261000,0.0324,0.013523,0.002678,0.000431,0.000823
20262000,0.0324,0.013523,0.002678,0.000431,0.000705
20263000,0.0324,0.013523,0.002678,0.000431,0.000705
20264000,0.0324,0.013523,0.002678,0.000431,0.000940
20265000,0.0324,0.013523,0.002678,0.000431,0.000940
20266000,0.0324,0.013523,0.002678,0.000431,0.000705
20267000,0.0324,0.013523,0.002678,0.000431,0.000940
20268000,0.0324,0.013523,0.002678,0.000431,0.000470
20269000,0.0324,0.013523,0.002678,0.000431,0.000705
20270000,0.0324,0.013523,0.002678,0.000431,0.000588
20271000,0.0324,0.013523,0.002678,0.000431,0.000588
20272000,0.0324,0.013523,0.002678,0.000431,0.000940
20273000,0.0324,0.013523,0.002678,0.000431,0.000823
20274000,0.0324,0.013523,0.002678,0.000431,0.000940
20275000,0.0324,0.013523,0.002678,0.000431,0.000588
20276000,0.0324,0.013523,0.002678,0.000431,0.000940
20277000,0.0324,0.013523,0.002678,0.000431,0.000823
20278000,0.0324,0.013523,0.002678,0.000431,0.000823
20279000,0.0324,0.013523,0.002678,0.000431,0.000705
20280000,0.0324,0.013523,0.002678,0.000431,0.000705
20281000,0.0324,0.013523,0.002678,0.000431,0.000705
20282000,0.0324,0.013523,0.002678,0.000431,0.000470
20283000,0.0324,0.013523,0.002678,0.000431,0.000588
20284000,0.0324,0.013523,0.002678,0.000431,0.000705
20285000,0.0324,0.013523,0.002678,0.000431,0.000588
20286000,0.0324,0.013523,0.002678,0.000431,0.000823
20287000,0.0324,0.013523,0.002678,0.000431,0.000823
20288000,0.0324,0.013523,0.002678,0.000431,0.000705
20289000,0.0324,0.013523,0.002678,0.000431,0.000940
20290000,0.0324,0.013523,0.002678,0.000431,0.000588
20291000,0.0324,0.013523,0.002678,0.000431,0.000940
20292000,0.0324,0.013523,0.002678,0.000431,0.000823
20293000,0.0324,0.013523,0.002678,0.000431,0.000705
20294000,0.0324,0.013523,0.002678,0.000431,0.000940
20295000,0.0324,0.013523,0.002678,0.000431,0.000940
20296000,0.0324,0.013523,0.002678,0.000431,0.001058
20297000,0.0324,0.013523,0.002678,0.000431,0.001058
20298000,0.0324,0.013523,0.002678,0.000431,0.000588
20299000,0.0324,0.013523,0.002678,0.000431,0.000588
20300000,0.0324,0.013523,0.002678,0.000431,0.000940
20301000,0.0324,0.013523,0.002678,0.000431,0.000940
20302000,0.0324,0.013523,0.002678,0.000431,0.000940
20303000,0.0324,0.013523,0.002678,0.000431,0.000823
20304000,0.0324,0.013523,0.002678,0.000431,0.000823
20305000,0.0324,0.013523,0.002678,0.000431,0.000940
20306000,0.0324,0.013523,0.002678,0.000431,0.000705
20307000,0.0324,0.013523,0.002678,0.000431,0.000705
20308000,0.0324,0.013523,0.002678,0.000431,0.000940
20309000,0.0324,0.013523,0.002678,0.000431,0.000940
20310000,0.0324,0.013523,0.002678,0.000431,0.000940
20311000,0.0324,0.013523,0.002678,0.000431,0.000705
20312000,0.0324,0.013523,0.002678,0.000431,0.001175
20313000,0.0324,0.013523,0.002678,0.000431,0.000823
20314000,0.0324,0.013523,0.002678,0.000431,0.000823
20315000,0.0324,0.013523,0.002678,0.000431,0.000705
20316000,0.0324,0.013523,0.002678,0.000431,0.000705
20317000,0.0324,0.013523,0.002678,0.000431,0.000470
20318000,0.0324,0.013523,0.002678,0.000431,0.000940
20319000,0.0324,0.013523,0.002678,0.000431,0.000588
20320000,0.0324,0.013523,0.002678,0.000431,0.001058
20321000,0.0324,0.013523,0.002678,0.000431,0.000823
20322000,0.0324,0.013523,0.002678,0.000431,0.000823
20323000,0.0324,0.013523,0.002678,0.000431,0.000705
20324000,0.0324,0.013523,0.002678,0.000431,0.000705
20325000,0.0324,0.013523,0.002678,0.000431,0.000705
20326000,0.0324,0.013523,0.002678,0.000431,0.001058
20327000,0.0324,0.013523,0.002678,0.000431,0.000940
20328000,0.0324,0.013523,0.002678,0.000431,0.000823
20329000,0.0324,0.013523,0.002678,0.000431,0.000823
20330000,0.0324,0.013523,0.002678,0.000431,0.000588
20331000,0.0324,0.013523,0.002678,0.000431,0.000940
20332000,0.0324,0.013523,0.002678,0.000431,0.000588
20333000,0.0324,0.013523,0.002678,0.000431,0.000940
20334000,0.0324,0.013523,0.002678,0.000431,0.000588
20335000,0.0324,0.013523,0.002678,0.000431,0.000823
20336000,0.0324,0.013523,0.002678,0.000431,0.000823
20337000,0.0324,0.013523,0.002678,0.000431,0.000940
20338000,0.0324,0.013523,0.002678,0.000431,0.000940
20339000,0.0324,0.013523,0.002678,0.000431,0.000705
20340000,0.0324,0.013523,0.002678,0.000431,0.000705
20341000,0.0324,0.013523,0.002678,0.000431,0.000470
20342000,0.0324,0.013523,0.002678,0.000431,0.000588
20343000,0.0324,0.013523,0.002678,0.000431,0.000588
20344000,0.0324,0.013523,0.002678,0.000431,0.000940
20345000,0.0324,0.013523,0.002678,0.000431,0.000823
20346000,0.0324,0.013523,0.002678,0.000431,0.000823
20347000,0.0324,0.013523,0.002678,0.000431,0.000940
20348000,0.0324,0.013523,0.002678,0.000431,0.000940
20349000,0.0324,0.013523,0.002678,0.000431,0.000705
20350000,0.0324,0.013523,0.002678,0.000431,0.000470
20351000,0.0324,0.013523,0.002678,0.000431,0.000588
20352000,0.0324,0.013523,0.002678,0.000431,0.000823
20353000,0.0324,0.013523,0.002678,0.000431,0.000940
20354000,0.0324,0.013523,0.002678,0.000431,0.000940
20355000,0.0324,0.013523,0.002678,0.000431,0.000588
20356000,0.0324,0.013523,0.002678,0.000431,0.000940
20357000,0.0324,0.013523,0.002678,0.000431,0.001058
20358000,0.0324,0.013523,0.002678,0.000431,0.000588
20359000,0.0324,0.013523,0.002678,0.000431,0.000588
20360000,0.0324,0.013523,0.002678,0.000431,0.000588
20361000,0.0324,0.013523,0.002678,0.000431,0.000940
20362000,0.0324,0.013523,0.002678,0.000431,0.000588
20363000,0.0324,0.013523,0.002678,0.000431,0.001058
20364000,0.0324,0.013523,0.002678,0.000431,0.001058
20365000,0.0324,0.013523,0.002678,0.000431,0.000588
20366000,0.0324,0.013523,0.002678,0.000431,0.000588
20367000,0.0324,0.013523,0.002678,0.000431,0.000940
20368000,0.0324,0.013523,0.002678,0.000431,0.000705
20369000,0.0324,0.013523,0.002678,0.000431,0.000940
20370000,0.0324,0.013523,0.002678,0.000431,0.000470
20371000,0.0324,0.013523,0.002678,0.000431,0.000705
20372000,0.0324,0.013523,0.002678,0.000431,0.000940
20373000,0.0324,0.013523,0.002678,0.000431,0.000940
20374000,0.0324,0.013523,0.002678,0.000431,0.000940
20375000,0.0324,0.013523,0.002678,0.000431,0.000940
20376000,0.0324,0.013523,0.002678,0.000431,0.000705
20377000,0.0324,0.013523,0.002678,0.000431,0.000705
20378000,0.0324,0.013523,0.002678,0.000431,0.000940
20379000,0.0324,0.013523,0.002678,0.000431,0.000940
20380000,0.0324,0.013523,0.002678,0.000431,0.000470
20381000,0.0324,0.013523,0.002678,0.000431,0.000705
20382000,0.0324,0.013523,0.002678,0.000431,0.000470
20383000,0.0324,0.013523,0.002678,0.000431,0.000705
20384000,0.0324,0.013523,0.002678,0.000431,0.000940
20385000,0.0324,0.013523,0.002678,0.000431,0.000940
20386000,0.0324,0.013523,0.002678,0.000431,0.000823
20387000,0.0324,0.013523,0.002678,0.000431,0.000940
20388000,0.0324,0.013523,0.002678,0.000431,0.000823
20389000,0.0324,0.013523,0.002678,0.000431,0.001058
20390000,0.0324,0.013523,0.002678,0.000431,0.000940
20391000,0.0324,0.013523,0.002678,0.000431,0.000823
20392000,0.0324,0.013523,0.002678,0.000431,0.000940
20393000,0.0324,0.013523,0.002678,0.000431,0.000940
20394000,0.0324,0.013523,0.002678,0.000431,0.001058
20395000,0.0324,0.013523,0.002678,0.000431,0.001058
20396000,0.0324,0.013523,0.002678,0.000431,0.000470
20397000,0.0324,0.013523,0.002678,0.000431,0.000705
20398000,0.0324,0.013523,0.002678,0.000431,0.000823
20399000,0.0324,0.013523,0.002678,0.000431,0.000940
20400000,0.0324,0.013523,0.002678,0.000431,0.001175
20401000,0.0324,0.013523,0.002678,0.000431,0.000940
20402000,0.0324,0.013523,0.002678,0.000431,0.000823
20403000,0.0324,0.013523,0.002678,0.000431,0.000940
20404000,0.0324,0.013523,0.002678,0.000431,0.000940
20405000,0.0324,0.013523,0.002678,0.000431,0.000705
20406000,0.0324,0.013523,0.002678,0.000431,0.000470
20407000,0.0324,0.013523,0.002678,0.000431,0.001058
20408000,0.0324,0.013523,0.002678,0.000431,0.000588
20409000,0.0324,0.013523,0.002678,0.000431,0.000470
20410000,0.0324,0.013523,0.002678,0.000431,0.000705
20411000,0.0324,0.013523,0.002678,0.000431,0.000940
20412000,0.0324,0.013523,0.002678,0.000431,0.000823
20413000,0.0324,0.013523,0.002678,0.000431,0.001058
20414000,0.0324,0.013523,0.002678,0.000431,0.000940
20415000,0.0324,0.013523,0.002678,0.000431,0.000940
20416000,0.0324,0.013523,0.002678,0.000431,0.000940
20417000,0.0324,0.013523,0.002678,0.000431,0.000705
20418000,0.0324,0.013523,0.002678,0.000431,0.000823
20419000,0.0324,0.013523,0.002678,0.000431,0.000940
20420000,0.0324,0.013523,0.002678,0.000431,0.000940
20421000,0.0324,0.013523,0.002678,0.000431,0.000823
20422000,0.0324,0.013523,0.002678,0.000431,0.000940
20423000,0.0324,0.013523,0.002678,0.000431,0.000823
20424000,0.0324,0.013523,0.002678,0.000431,0.000940
20425000,0.0324,0.013523,0.002678,0.000431,0.000823
20426000,0.0324,0.013523,0.002678,0.000431,0.000705
20427000,0.0324,0.013523,0.002678,0.000431,0.000940
20428000,0.0324,0.013523,0.002678,0.000431,0.000940
20429000,0.0324,0.013523,0.002678,0.000431,0.000940
20430000,0.0324,0.013523,0.002678,0.000431,0.000588
20431000,0.0324,0.013523,0.002678,0.000431,0.000940
20432000,0.0324,0.013523,0.002678,0.000431,0.000823
20433000,0.0324,0.013523,0.002678,0.000431,0.000940
20434000,0.0324,0.013523,0.002678,0.000431,0.000588
20435000,0.0324,0.013523,0.002678,0.000431,0.000940
20436000,0.0324,0.013523,0.002678,0.000431,0.000823
20437000,0.0324,0.013523,0.002678,0.000431,0.000940
20438000,0.0324,0.013523,0.002678,0.000431,0.000940
20439000,0.0324,0.013523,0.002678,0.000431,0.001058
20440000,0.0324,0.013523,0.002678,0.000431,0.000588
20441000,0.0324,0.013523,0.002678,0.000431,0.000588
20442000,0.0324,0.013523,0.002678,0.000431,0.000588
20443000,0.0324,0.013523,0.002678,0.000431,0.000940
20444000,0.0324,0.013523,0.002678,0.000431,0.000705
20445000,0.0324,0.013523,0.002678,0.000431,0.001058
20446000,0.0324,0.013523,0.002678,0.000431,0.000940
20447000,0.0324,0.013523,0.002678,0.000431,0.000823
20448000,0.0324,0.013523,0.002678,0.000431,0.000940
20449000,0.0324,0.013523,0.002678,0.000431,0.000940
20450000,0.0324,0.013523,0.002678,0.000431,0.000823
20451000,0.0324,0.013523,0.002678,0.000431,0.000823
20452000,0.0324,0.013523,0.002678,0.000431,0.000705
20453000,0.0324,0.013523,0.002678,0.000431,0.000823
20454000,0.0324,0.013523,0.002678,0.000431,0.001058
20455000,0.0324,0.013523,0.002678,0.000431,0.000823
20456000,0.0324,0.013523,0.002678,0.000431,0.000588
20457000,0.0324,0.013523,0.002678,0.000431,0.000940
20458000,0.0324,0.013523,0.002678,0.000431,0.000705
20459000,0.0324,0.013523,0.002678,0.000431,0.001058
20460000,0.0324,0.013523,0.002678,0.000431,0.000588
20461000,0.0324,0.013523,0.002678,0.000431,0.000940
20462000,0.0324,0.013523,0.002678,0.000431,0.000940
20463000,0.0324,0.013523,0.002678,0.000431,0.000940
20464000,0.0324,0.013523,0.002678,0.000431,0.000940
20465000,0.0324,0.013523,0.002678,0.000431,0.000940
20466000,0.0324,0.013523,0.002678,0.000431,0.001175
20467000,0.0324,0.013523,0.002678,0.000431,0.000940
20468000,0.0324,0.013523,0.002678,0.000431,0.000470
20469000,0.0324,0.013523,0.002678,0.000431,0.001175
20470000,0.0324,0.013523,0.002678,0.000431,0.000470
20471000,0.0324,0.013523,0.002678,0.000431,0.000705
20472000,0.0324,0.013523,0.002678,0.000431,0.000940
20473000,0.0324,0.013523,0.002678,0.000431,0.000470
20474000,0.0324,0.013523,0.002678,0.000431,0.000705
20475000,0.0324,0.013523,0.002678,0.000431,0.000705
20476000,0.0324,0.013523,0.002678,0.000431,0.000940
20477000,0.0324,0.013523,0.002678,0.000431,0.000940
20478000,0.0324,0.013523,0.002678,0.000431,0.000705
20479000,0.0324,0.013523,0.002678,0.000431,0.000940
20480000,0.0324,0.013523,0.002678,0.000431,0.000940
20481000,0.0324,0.013523,0.002678,0.000431,0.000470
20482000,0.0324,0.013523,0.002678,0.000431,0.001058
20483000,0.0324,0.013523,0.002678,0.000431,0.000588
20484000,0.0324,0.013523,0.002678,0.000431,0.000705
20485000,0.0324,0.013523,0.002678,0.000431,0.000823
20486000,0.0324,0.013523,0.002678,0.000431,0.000705
20487000,0.0324,0.013523,0.002678,0.000431,0.001058
20488000,0.0324,0.013523,0.002678,0.000431,0.000823
20489000,0.0324,0.013523,0.002678,0.000431,0.001058
20490000,0.0324,0.013523,0.002678,0.000431,0.000705
20491000,0.0324,0.013523,0.002678,0.000431,0.000823
20492000,0.0324,0.013523,0.002678,0.000431,0.000823
20493000,0.0324,0.013523,0.002678,0.000431,0.000470
20494000,0.0324,0.013523,0.002678,0.000431,0.000823
20495000,0.0324,0.013523,0.002678,0.000431,0.000823
20496000,0.0324,0.013523,0.002678,0.000431,0.000470
20497000,0.0324,0.013523,0.002678,0.000431,0.000705
20498000,0.0324,0.013523,0.002678,0.000431,0.000940
20499000,0.0324,0.013523,0.002678,0.000431,0.000705
20500000,0.0324,0.013523,0.002678,0.000431,0.000940
20501000,0.0324,0.013523,0.002678,0.000431,0.000940
20502000,0.0324,0.013523,0.002678,0.000431,0.000940
20503000,0.0324,0.013523,0.002678,0.000431,0.000705
20504000,0.0324,0.013523,0.002678,0.000431,0.001058
20505000,0.0324,0.013523,0.002678,0.000431,0.000823
20506000,0.0324,0.013523,0.002678,0.000431,0.000705
20507000,0.0324,0.013523,0.002678,0.000431,0.000705
20508000,0.0324,0.013523,0.002678,0.000431,0.000940
20509000,0.0324,0.013523,0.002678,0.000431,0.001058
20510000,0.0324,0.013523,0.002678,0.000431,0.000940
20511000,0.0324,0.013523,0.002678,0.000431,0.000823
20512000,0.0324,0.013523,0.002678,0.000431,0.000705
20513000,0.0324,0.013523,0.002678,0.000431,0.000705
20514000,0.0324,0.013523,0.002678,0.000431,0.000705
20515000,0.0324,0.013523,0.002678,0.000431,0.000940
20516000,0.0324,0.013523,0.002678,0.000431,0.000705
20517000,0.0324,0.013523,0.002678,0.000431,0.000705
20518000,0.0324,0.013523,0.002678,0.000431,0.000940
20519000,0.0324,0.013523,0.002678,0.000431,0.000940
20520000,0.0324,0.013523,0.002678,0.000431,0.001058
20521000,0.0324,0.013523,0.002678,0.000431,0.000940
20522000,0.0324,0.013523,0.002678,0.000431,0.000940
20523000,0.0324,0.013523,0.002678,0.000431,0.000705
20524000,0.0324,0.013523,0.002678,0.000431,0.000940
20525000,0.0324,0.013523,0.002678,0.000431,0.000588
20526000,0.0324,0.013523,0.002678,0.000431,0.000705
20527000,0.0324,0.013523,0.002678,0.000431,0.000705
20528000,0.0324,0.013523,0.002678,0.000431,0.000940
20529000,0.0324,0.013523,0.002678,0.000431,0.000940
20530000,0.0324,0.013523,0.002678,0.000431,0.000705
20531000,0.0324,0.013523,0.002678,0.000431,0.001175
20532000,0.0324,0.013523,0.002678,0.000431,0.001058
20533000,0.0324,0.013523,0.002678,0.000431,0.001058
20534000,0.0324,0.013523,0.002678,0.000431,0.000705
20535000,0.0324,0.013523,0.002678,0.000431,0.000940
20536000,0.0324,0.013523,0.002678,0.000431,0.000940
20537000,0.0324,0.013523,0.002678,0.000431,0.001175
20538000,0.0324,0.013523,0.002678,0.000431,0.000940
20539000,0.0324,0.013523,0.002678,0.000431,0.000940
20540000,0.0324,0.013523,0.002678,0.000431,0.000940
20541000,0.0324,0.013523,0.002678,0.000431,0.000588
20542000,0.0324,0.013523,0.002678,0.000431,0.000940
20543000,0.0324,0.013523,0.002678,0.000431,0.000588
20544000,0.0324,0.013523,0.002678,0.000431,0.001175
20545000,0.0324,0.013523,0.002678,0.000431,0.000823
20546000,0.0324,0.013523,0.002678,0.000431,0.000823
20547000,0.0324,0.013523,0.002678,0.000431,0.000823
20548000,0.0324,0.013523,0.002678,0.000431,0.000823
20549000,0.0324,0.013523,0.002678,0.000431,0.000705
20550000,0.0324,0.013523,0.002678,0.000431,0.000705
20551000,0.0324,0.013523,0.002678,0.000431,0.000470
20552000,0.0324,0.013523,0.002678,0.000431,0.000705
20553000,0.0324,0.013523,0.002678,0.000431,0.000470
20554000,0.0324,0.013523,0.002678,0.000431,0.001058
20555000,0.0324,0.013523,0.002678,0.000431,0.000588
20556000,0.0324,0.013523,0.002678,0.000431,0.000940
20557000,0.0324,0.013523,0.002678,0.000431,0.000940
20558000,0.0324,0.013523,0.002678,0.000431,0.000940
20559000,0.0324,0.013523,0.002678,0.000431,0.000940
20560000,0.0324,0.013523,0.002678,0.000431,0.000940
20561000,0.0324,0.013523,0.002678,0.000431,0.000940
20562000,0.0324,0.013523,0.002678,0.000431,0.000588
20563000,0.0324,0.013523,0.002678,0.000431,0.000588
20564000,0.0324,0.013523,0.002678,0.000431,0.000940
20565000,0.0324,0.013523,0.002678,0.000431,0.000705
20566000,0.0324,0.013523,0.002678,0.000431,0.000705
20567000,0.0324,0.013523,0.002678,0.000431,0.000823
20568000,0.0324,0.013523,0.002678,0.000431,0.000588
20569000,0.0324,0.013523,0.002678,0.000431,0.000588
20570000,0.0324,0.013523,0.002678,0.000431,0.000823
20571000,0.0324,0.013523,0.002678,0.000431,0.000940
20572000,0.0324,0.013523,0.002678,0.000431,0.000940
20573000,0.0324,0.013523,0.002678,0.000431,0.000940
20574000,0.0324,0.013523,0.002678,0.000431,0.000588
20575000,0.0324,0.013523,0.002678,0.000431,0.000588
20576000,0.0324,0.013523,0.002678,0.000431,0.000705
20577000,0.0324,0.013523,0.002678,0.000431,0.000823
20578000,0.0324,0.013523,0.002678,0.000431,0.000823
20579000,0.0324,0.013523,0.002678,0.000431,0.000940
20580000,0.0324,0.013523,0.002678,0.000431,0.000940
20581000,0.0324,0.013523,0.002678,0.000431,0.000940
20582000,0.0324,0.013523,0.002678,0.000431,0.000705
20583000,0.0324,0.013523,0.002678,0.000431,0.000470
20584000,0.0324,0.013523,0.002678,0.000431,0.001175
20585000,0.0324,0.013523,0.002678,0.000431,0.000705
20586000,0.0324,0.013523,0.002678,0.000431,0.000823
20587000,0.0324,0.013523,0.002678,0.000431,0.000588
20588000,0.0324,0.013523,0.002678,0.000431,0.000823
20589000,0.0324,0.013523,0.002678,0.000431,0.000705
20590000,0.0324,0.013523,0.002678,0.000431,0.000588
20591000,0.0324,0.013523,0.002678,0.000431,0.000470
20592000,0.0324,0.013523,0.002678,0.000431,0.000705
20593000,0.0324,0.013523,0.002678,0.000431,0.000588
20594000,0.0324,0.013523,0.002678,0.000431,0.000940
20595000,0.0324,0.013523,0.002678,0.000431,0.000940
20596000,0.0324,0.013523,0.002678,0.000431,0.000823
20597000,0.0324,0.013523,0.002678,0.000431,0.000705
20598000,0.0324,0.013523,0.002678,0.000431,0.000940
20599000,0.0324,0.013523,0.002678,0.000431,0.000940
20600000,0.0324,0.013523,0.002678,0.000431,0.000470
20601000,0.0324,0.013523,0.002678,0.000431,0.000705
20602000,0.0324,0.013523,0.002678,0.000431,0.000940
20603000,0.0324,0.013523,0.002678,0.000431,0.000823
20604000,0.0324,0.013523,0.002678,0.000431,0.000823
20605000,0.0324,0.013523,0.002678,0.000431,0.000940
20606000,0.0324,0.013523,0.002678,0.000431,0.000940
20607000,0.0324,0.013523,0.002678,0.000431,0.000705
20608000,0.0324,0.013523,0.002678,0.000431,0.000823
20609000,0.0324,0.013523,0.002678,0.000431,0.000588
20610000,0.0324,0.013523,0.002678,0.000431,0.000705
20611000,0.0324,0.013523,0.002678,0.000431,0.000940
20612000,0.0324,0.013523,0.002678,0.000431,0.001175
20613000,0.0324,0.013523,0.002678,0.000431,0.000940
20614000,0.0324,0.013523,0.002678,0.000431,0.000940
20615000,0.0324,0.013523,0.002678,0.000431,0.000705
20616000,0.0324,0.013523,0.002678,0.000431,0.000470
20617000,0.0324,0.013523,0.002678,0.000431,0.001058
20618000,0.0324,0.013523,0.002678,0.000431,0.000823
20619000,0.0324,0.013523,0.002678,0.000431,0.000940
20620000,0.0324,0.013523,0.002678,0.000431,0.000705
20621000,0.0324,0.013523,0.002678,0.000431,0.000940
20622000,0.0324,0.013523,0.002678,0.000431,0.000470
20623000,0.0324,0.013523,0.002678,0.000431,0.000940
20624000,0.0324,0.013523,0.002678,0.000431,0.000705
20625000,0.0324,0.013523,0.002678,0.000431,0.000705
20626000,0.0324,0.013523,0.002678,0.000431,0.000705
20627000,0.0324,0.013523,0.002678,0.000431,0.000823
20628000,0.0324,0.013523,0.002678,0.000431,0.000940
20629000,0.0324,0.013523,0.002678,0.000431,0.000823
20630000,0.0324,0.013523,0.002678,0.000431,0.000823
20631000,0.0324,0.013523,0.002678,0.000431,0.000940
20632000,0.0324,0.013523,0.002678,0.000431,0.000940
20633000,0.0324,0.013523,0.002678,0.000431,0.000823
20634000,0.0324,0.013523,0.002678,0.000431,0.000705
20635000,0.0324,0.013523,0.002678,0.000431,0.001058
20636000,0.0324,0.013523,0.002678,0.000431,0.000940
20637000,0.0324,0.013523,0.002678,0.000431,0.000823
20638000,0.0324,0.013523,0.002678,0.000431,0.000940
20639000,0.0324,0.013523,0.002678,0.000431,0.000940
20640000,0.0324,0.013523,0.002678,0.000431,0.000705
20641000,0.0324,0.013523,0.002678,0.000431,0.000940
20642000,0.0324,0.013523,0.002678,0.000431,0.000705
20643000,0.0324,0.013523,0.002678,0.000431,0.000823
20644000,0.0324,0.013523,0.002678,0.000431,0.001058
20645000,0.0324,0.013523,0.002678,0.000431,0.000823
20646000,0.0324,0.013523,0.002678,0.000431,0.000823
20647000,0.0324,0.013523,0.002678,0.000431,0.000823
20648000,0.0324,0.013523,0.002678,0.000431,0.001058
20649000,0.0324,0.013523,0.002678,0.000431,0.000588
20650000,0.0324,0.013523,0.002678,0.000431,0.000823
20651000,0.0324,0.013523,0.002678,0.000431,0.000823
20652000,0.0324,0.013523,0.002678,0.000431,0.000940
20653000,0.0324,0.013523,0.002678,0.000431,0.000940
20654000,0.0324,0.013523,0.002678,0.000431,0.000823
20655000,0.0324,0.013523,0.002678,0.000431,0.000940
20656000,0.0324,0.013523,0.002678,0.000431,0.000940
20657000,0.0324,0.013523,0.002678,0.000431,0.000940
20658000,0.0324,0.013523,0.002678,0.000431,0.000705
20659000,0.0324,0.013523,0.002678,0.000431,0.000470
20660000,0.0324,0.013523,0.002678,0.000431,0.000940
20661000,0.0324,0.013523,0.002678,0.000431,0.000940
20662000,0.0324,0.013523,0.002678,0.000431,0.000823
20663000,0.0324,0.013523,0.002678,0.000431,0.000823
20664000,0.0324,0.013523,0.002678,0.000431,0.000705
20665000,0.0324,0.013523,0.002678,0.000431,0.000470
20666000,0.0324,0.013523,0.002678,0.000431,0.001058
20667000,0.0324,0.013523,0.002678,0.000431,0.000588
20668000,0.0324,0.013523,0.002678,0.000431,0.000705
20669000,0.0324,0.013523,0.002678,0.000431,0.000823
20670000,0.0324,0.013523,0.002678,0.000431,0.000588
20671000,0.0324,0.013523,0.002678,0.000431,0.000705
20672000,0.0324,0.013523,0.002678,0.000431,0.000940
20673000,0.0324,0.013523,0.002678,0.000431,0.000470
20674000,0.0324,0.013523,0.002678,0.000431,0.001175
20675000,0.0324,0.013523,0.002678,0.000431,0.000940
20676000,0.0324,0.013523,0.002678,0.000431,0.000470
20677000,0.0324,0.013523,0.002678,0.000431,0.000705
20678000,0.0324,0.013523,0.002678,0.000431,0.000470
20679000,0.0324,0.013523,0.002678,0.000431,0.000705
20680000,0.0324,0.013523,0.002678,0.000431,0.000588
20681000,0.0324,0.013523,0.002678,0.000431,0.000588
20682000,0.0324,0.013523,0.002678,0.000431,0.000705
20683000,0.0324,0.013523,0.002678,0.000431,0.000823
20684000,0.0324,0.013523,0.002678,0.000431,0.000588
20685000,0.0324,0.013523,0.002678,0.000431,0.000470
20686000,0.0324,0.013523,0.002678,0.000431,0.000940
20687000,0.0324,0.013523,0.002678,0.000431,0.000705
20688000,0.0324,0.013523,0.002678,0.000431,0.001058
20689000,0.0324,0.013523,0.002678,0.000431,0.000940
20690000,0.0324,0.013523,0.002678,0.000431,0.000588
20691000,0.0324,0.013523,0.002678,0.000431,0.000470
20692000,0.0324,0.013523,0.002678,0.000431,0.000940
20693000,0.0324,0.013523,0.002678,0.000431,0.000940
20694000,0.0324,0.013523,0.002678,0.000431,0.000705
20695000,0.0324,0.013523,0.002678,0.000431,0.000705
20696000,0.0324,0.013523,0.002678,0.000431,0.000940
20697000,0.0324,0.013523,0.002678,0.000431,0.000823
20698000,0.0324,0.013523,0.002678,0.000431,0.000940
20699000,0.0324,0.013523,0.002678,0.000431,0.001058
20700000,0.0324,0.013523,0.002678,0.000431,0.000705
20701000,0.0324,0.013523,0.002678,0.000431,0.001058
20702000,0.0324,0.013523,0.002678,0.000431,0.000940
20703000,0.0324,0.013523,0.002678,0.000431,0.000823
20704000,0.0324,0.013523,0.002678,0.000431,0.000705
20705000,0.0324,0.013523,0.002678,0.000431,0.001058
20706000,0.0324,0.013523,0.002678,0.000431,0.000588
20707000,0.0324,0.013523,0.002678,0.000431,0.000823
20708000,0.0324,0.013523,0.002678,0.000431,0.001058
20709000,0.0324,0.013523,0.002678,0.000431,0.000705
20710000,0.0324,0.013523,0.002678,0.000431,0.000705
20711000,0.0324,0.013523,0.002678,0.000431,0.000823
20712000,0.0324,0.013523,0.002678,0.000431,0.000823
20713000,0.0324,0.013523,0.002678,0.000431,0.000940
20714000,0.0324,0.013523,0.002678,0.000431,0.000940
20715000,0.0324,0.013523,0.002678,0.000431,0.000940
20716000,0.0324,0.013523,0.002678,0.000431,0.000940
20717000,0.0324,0.013523,0.002678,0.000431,0.000705
20718000,0.0324,0.013523,0.002678,0.000431,0.000823
20719000,0.0324,0.013523,0.002678,0.000431,0.000823
20720000,0.0324,0.013523,0.002678,0.000431,0.000940
20721000,0.0324,0.013523,0.002678,0.000431,0.000705
20722000,0.0324,0.013523,0.002678,0.000431,0.000940
20723000,0.0324,0.013523,0.002678,0.000431,0.000940
20724000,0.0324,0.013523,0.002678,0.000431,0.000940
20725000,0.0324,0.013523,0.002678,0.000431,0.000823
20726000,0.0324,0.013523,0.002678,0.000431,0.000823
20727000,0.0324,0.013523,0.002678,0.000431,0.000470
20728000,0.0324,0.013523,0.002678,0.000431,0.000823
20729000,0.0324,0.013523,0.002678,0.000431,0.000823
20730000,0.0324,0.013523,0.002678,0.000431,0.000940
20731000,0.0324,0.013523,0.002678,0.000431,0.000940
20732000,0.0324,0.013523,0.002678,0.000431,0.000823
20733000,0.0324,0.013523,0.002678,0.000431,0.000823
20734000,0.0324,0.013523,0.002678,0.000431,0.000588
20735000,0.0324,0.013523,0.002678,0.000431,0.000940
20736000,0.0324,0.013523,0.002678,0.000431,0.000588
20737000,0.0324,0.013523,0.002678,0.000431,0.000823
20738000,0.0324,0.013523,0.002678,0.000431,0.000823
20739000,0.0324,0.013523,0.002678,0.000431,0.000823
20740000,0.0324,0.013523,0.002678,0.000431,0.000823
20741000,0.0324,0.013523,0.002678,0.000431,0.000940
20742000,0.0324,0.013523,0.002678,0.000431,0.000940
20743000,0.0324,0.013523,0.002678,0.000431,0.001058
20744000,0.0324,0.013523,0.002678,0.000431,0.000588
20745000,0.0324,0.013523,0.002678,0.000431,0.000823
20746000,0.0324,0.013523,0.002678,0.000431,0.000823
20747000,0.0324,0.013523,0.002678,0.000431,0.000940
20748000,0.0324,0.013523,0.002678,0.000431,0.000705
20749000,0.0324,0.013523,0.002678,0.000431,0.000940
20750000,0.0324,0.013523,0.002678,0.000431,0.000705
20751000,0.0324,0.013523,0.002678,0.000431,0.000940
20752000,0.0324,0.013523,0.002678,0.000431,0.000940
20753000,0.0324,0.013523,0.002678,0.000431,0.000823
20754000,0.0324,0.013523,0.002678,0.000431,0.000940
20755000,0.0324,0.013523,0.002678,0.000431,0.001058
20756000,0.0324,0.013523,0.002678,0.000431,0.000705
20757000,0.0324,0.013523,0.002678,0.000431,0.001058
20758000,0.0324,0.013523,0.002678,0.000431,0.000823
20759000,0.0324,0.013523,0.002678,0.000431,0.000940
20760000,0.0324,0.013523,0.002678,0.000431,0.000940
20761000,0.0324,0.013523,0.002678,0.000431,0.000823
20762000,0.0324,0.013523,0.002678,0.000431,0.000823
20763000,0.0324,0.013523,0.002678,0.000431,0.000940
20764000,0.0324,0.013523,0.002678,0.000431,0.000940
20765000,0.0324,0.013523,0.002678,0.000431,0.000823
20766000,0.0324,0.013523,0.002678,0.000431,0.000940
20767000,0.0324,0.013523,0.002678,0.000431,0.001058
20768000,0.0324,0.013523,0.002678,0.000431,0.000705
20769000,0.0324,0.013523,0.002678,0.000431,0.001058
20770000,0.0324,0.013523,0.002678,0.000431,0.000588
20771000,0.0324,0.013523,0.002678,0.000431,0.000705
20772000,0.0324,0.013523,0.002678,0.000431,0.000940
20773000,0.0324,0.013523,0.002678,0.000431,0.000823
20774000,0.0324,0.013523,0.002678,0.000431,0.000823
20775000,0.0324,0.013523,0.002678,0.000431,0.000940
20776000,0.0324,0.013523,0.002678,0.000431,0.000705
20777000,0.0324,0.013523,0.002678,0.000431,0.000940
20778000,0.0324,0.013523,0.002678,0.000431,0.000470
20779000,0.0324,0.013523,0.002678,0.000431,0.000940
20780000,0.0324,0.013523,0.002678,0.000431,0.000705
20781000,0.0324,0.013523,0.002678,0.000431,0.000823
20782000,0.0324,0.013523,0.002678,0.000431,0.000823
20783000,0.0324,0.013523,0.002678,0.000431,0.000940
20784000,0.0324,0.013523,0.002678,0.000431,0.000940
20785000,0.0324,0.013523,0.002678,0.000431,0.000940
20786000,0.0324,0.013523,0.002678,0.000431,0.001175
20787000,0.0324,0.013523,0.002678,0.000431,0.000823
20788000,0.0324,0.013523,0.002678,0.000431,0.000823
20789000,0.0324,0.013523,0.002678,0.000431,0.000940
20790000,0.0324,0.013523,0.002678,0.000431,0.000940
20791000,0.0324,0.013523,0.002678,0.000431,0.000823
20792000,0.0324,0.013523,0.002678,0.000431,0.001058
20793000,0.0324,0.013523,0.002678,0.000431,0.000823
20794000,0.0324,0.013523,0.002678,0.000431,0.000588
20795000,0.0324,0.013523,0.002678,0.000431,0.000940
20796000,0.0324,0.013523,0.002678,0.000431,0.000940
20797000,0.0324,0.013523,0.002678,0.000431,0.000940
20798000,0.0324,0.013523,0.002678,0.000431,0.000940
20799000,0.0324,0.013523,0.002678,0.000431,0.000823
20800000,0.0324,0.013523,0.002678,0.000431,0.000823
20801000,0.0324,0.013523,0.002678,0.000431,0.000940
20802000,0.0324,0.013523,0.002678,0.000431,0.000940
20803000,0.0324,0.013523,0.002678,0.000431,0.000823
20804000,0.0324,0.013523,0.002678,0.000431,0.000823
20805000,0.0324,0.013523,0.002678,0.000431,0.000940
20806000,0.0324,0.013523,0.002678,0.000431,0.001058
20807000,0.0324,0.013523,0.002678,0.000431,0.000940
20808000,0.0324,0.013523,0.002678,0.000431,0.000823
20809000,0.0324,0.013523,0.002678,0.000431,0.000940
20810000,0.0324,0.013523,0.002678,0.000431,0.000470
20811000,0.0324,0.013523,0.002678,0.000431,0.000705
20812000,0.0324,0.013523,0.002678,0.000431,0.000940
20813000,0.0324,0.013523,0.002678,0.000431,0.000940
20814000,0.0324,0.013523,0.002678,0.000431,0.000705
20815000,0.0324,0.013523,0.002678,0.000431,0.000940
20816000,0.0324,0.013523,0.002678,0.000431,0.000940
20817000,0.0324,0.013523,0.002678,0.000431,0.001058
20818000,0.0324,0.013523,0.002678,0.000431,0.000588
20819000,0.0324,0.013523,0.002678,0.000431,0.000940
20820000,0.0324,0.013523,0.002678,0.000431,0.000940
20821000,0.0324,0.013523,0.002678,0.000431,0.000823
20822000,0.0324,0.013523,0.002678,0.000431,0.000823
20823000,0.0324,0.013523,0.002678,0.000431,0.001058
20824000,0.0324,0.013523,0.002678,0.000431,0.000588
20825000,0.0324,0.013523,0.002678,0.000431,0.001175
20826000,0.0324,0.013523,0.002678,0.000431,0.000940
20827000,0.0324,0.013523,0.002678,0.000431,0.000823
20828000,0.0324,0.013523,0.002678,0.000431,0.000823
20829000,0.0324,0.013523,0.002678,0.000431,0.000940
20830000,0.0324,0.013523,0.002678,0.000431,0.000940
20831000,0.0324,0.013523,0.002678,0.000431,0.000940
20832000,0.0324,0.013523,0.002678,0.000431,0.000940
20833000,0.0324,0.013523,0.002678,0.000431,0.000940
20834000,0.0324,0.013523,0.002678,0.000431,0.000705
20835000,0.0324,0.013523,0.002678,0.000431,0.000940
20836000,0.0324,0.013523,0.002678,0.000431,0.001175
20837000,0.0324,0.013523,0.002678,0.000431,0.000940
20838000,0.0324,0.013523,0.002678,0.000431,0.001175
20839000,0.0324,0.013523,0.002678,0.000431,0.000470
20840000,0.0324,0.013523,0.002678,0.000431,0.000470
20841000,0.0324,0.013523,0.002678,0.000431,0.000705
20842000,0.0324,0.013523,0.002678,0.000431,0.000940
20843000,0.0324,0.013523,0.002678,0.000431,0.000940
20844000,0.0324,0.013523,0.002678,0.000431,0.001058
20845000,0.0324,0.013523,0.002678,0.000431,0.000823
20846000,0.0324,0.013523,0.002678,0.000431,0.000705
20847000,0.0324,0.013523,0.002678,0.000431,0.001058
20848000,0.0324,0.013523,0.002678,0.000431,0.000588
20849000,0.0324,0.013523,0.002678,0.000431,0.000940
20850000,0.0324,0.013523,0.002678,0.000431,0.000940
20851000,0.0324,0.013523,0.002678,0.000431,0.000823
20852000,0.0324,0.013523,0.002678,0.000431,0.000823
20853000,0.0324,0.013523,0.002678,0.000431,0.000705
20854000,0.0324,0.013523,0.002678,0.000431,0.000940
20855000,0.0324,0.013523,0.002678,0.000431,0.000705
20856000,0.0324,0.013523,0.002678,0.000431,0.000940
20857000,0.0324,0.013523,0.002678,0.000431,0.001058
20858000,0.0324,0.013523,0.002678,0.000431,0.000940
20859000,0.0324,0.013523,0.002678,0.000431,0.000940
20860000,0.0324,0.013523,0.002678,0.000431,0.001175
20861000,0.0324,0.013523,0.002678,0.000431,0.000940
20862000,0.0324,0.013523,0.002678,0.000431,0.000823
20863000,0.0324,0.013523,0.002678,0.000431,0.000823
20864000,0.0324,0.013523,0.002678,0.000431,0.000940
20865000,0.0324,0.013523,0.002678,0.000431,0.000823
20866000,0.0324,0.013523,0.002678,0.000431,0.000940
20867000,0.0324,0.013523,0.002678,0.000431,0.000940
20868000,0.0324,0.013523,0.002678,0.000431,0.000940
20869000,0.0324,0.013523,0.002678,0.000431,0.000940
20870000,0.0324,0.013523,0.002678,0.000431,0.000823
20871000,0.0324,0.013523,0.002678,0.000431,0.001058
20872000,0.0324,0.013523,0.002678,0.000431,0.000940
20873000,0.0324,0.013523,0.002678,0.000431,0.001175
20874000,0.0324,0.013523,0.002678,0.000431,0.000940
20875000,0.0324,0.013523,0.002678,0.000431,0.000940
20876000,0.0324,0.013523,0.002678,0.000431,0.000705
20877000,0.0324,0.013523,0.002678,0.000431,0.000940
20878000,0.0324,0.013523,0.002678,0.000431,0.000940
20879000,0.0324,0.013523,0.002678,0.000431,0.000470
20880000,0.0324,0.013523,0.002678,0.000431,0.001058
20881000,0.0324,0.013523,0.002678,0.000431,0.000588
20882000,0.0324,0.013523,0.002678,0.000431,0.000823
20883000,0.0324,0.013523,0.002678,0.000431,0.000940
20884000,0.0324,0.013523,0.002678,0.000431,0.001058
20885000,0.0324,0.013523,0.002678,0.000431,0.000705
20886000,0.0324,0.013523,0.002678,0.000431,0.001058
20887000,0.0324,0.013523,0.002678,0.000431,0.000588
20888000,0.0324,0.013523,0.002678,0.000431,0.000940
20889000,0.0324,0.013523,0.002678,0.000431,0.000940
20890000,0.0324,0.013523,0.002678,0.000431,0.000705
20891000,0.0324,0.013523,0.002678,0.000431,0.000705
20892000,0.0324,0.013523,0.002678,0.000431,0.000940
20893000,0.0324,0.013523,0.002678,0.000431,0.000940
20894000,0.0324,0.013523,0.002678,0.000431,0.000940
20895000,0.0324,0.013523,0.002678,0.000431,0.000940
20896000,0.0324,0.013523,0.002678,0.000431,0.000940
20897000,0.0324,0.013523,0.002678,0.000431,0.000705
20898000,0.0324,0.013523,0.002678,0.000431,0.001058
20899000,0.0324,0.013523,0.002678,0.000431,0.000940
20900000,0.0324,0.013523,0.002678,0.000431,0.000823
20901000,0.0324,0.013523,0.002678,0.000431,0.000823
20902000,0.0324,0.013523,0.002678,0.000431,0.000940
20903000,0.0324,0.013523,0.002678,0.000431,0.000823
20904000,0.0324,0.013523,0.002678,0.000431,0.000940
20905000,0.0324,0.013523,0.002678,0.000431,0.000940
20906000,0.0324,0.013523,0.002678,0.000431,0.000470
20907000,0.0324,0.013523,0.002678,0.000431,0.001058
20908000,0.0324,0.013523,0.002678,0.000431,0.000588
20909000,0.0324,0.013523,0.002678,0.000431,0.000940
20910000,0.0324,0.013523,0.002678,0.000431,0.000823
20911000,0.0324,0.013523,0.002678,0.000431,0.000823
20912000,0.0324,0.013523,0.002678,0.000431,0.000940
20913000,0.0324,0.013523,0.002678,0.000431,0.001058
20914000,0.0324,0.013523,0.002678,0.000431,0.000940
20915000,0.0324,0.013523,0.002678,0.000431,0.000940
20916000,0.0324,0.013523,0.002678,0.000431,0.000705
20917000,0.0324,0.013523,0.002678,0.000431,0.001058
20918000,0.0324,0.013523,0.002678,0.000431,0.000940
20919000,0.0324,0.013523,0.002678,0.000431,0.000940
20920000,0.0324,0.013523,0.002678,0.000431,0.000823
20921000,0.0324,0.013523,0.002678,0.000431,0.000940
20922000,0.0324,0.013523,0.002678,0.000431,0.000940
20923000,0.0324,0.013523,0.002678,0.000431,0.000940
20924000,0.0324,0.013523,0.002678,0.000431,0.001058
20925000,0.0324,0.013523,0.002678,0.000431,0.001175
20926000,0.0324,0.013523,0.002678,0.000431,0.000823
20927000,0.0324,0.013523,0.002678,0.000431,0.000823
20928000,0.0324,0.013523,0.002678,0.000431,0.000823
20929000,0.0324,0.013523,0.002678,0.000431,0.000588
20930000,0.0324,0.013523,0.002678,0.000431,0.001058
20931000,0.0324,0.013523,0.002678,0.000431,0.000823
20932000,0.0324,0.013523,0.002678,0.000431,0.000940
20933000,0.0324,0.013523,0.002678,0.000431,0.000940
20934000,0.0324,0.013523,0.002678,0.000431,0.000940
20935000,0.0324,0.013523,0.002678,0.000431,0.000823
20936000,0.0324,0.013523,0.002678,0.000431,0.000940
20937000,0.0324,0.013523,0.002678,0.000431,0.001058
20938000,0.0324,0.013523,0.002678,0.000431,0.000705
20939000,0.0324,0.013523,0.002678,0.000431,0.000705
20940000,0.0324,0.013523,0.002678,0.000431,0.000940
20941000,0.0324,0.013523,0.002678,0.000431,0.000588
20942000,0.0324,0.013523,0.002678,0.000431,0.001058
20943000,0.0324,0.013523,0.002678,0.000431,0.000940
20944000,0.0324,0.013523,0.002678,0.000431,0.001058
20945000,0.0324,0.013523,0.002678,0.000431,0.000940
20946000,0.0324,0.013523,0.002678,0.000431,0.000940
20947000,0.0324,0.013523,0.002678,0.000431,0.000588
20948000,0.0324,0.013523,0.002678,0.000431,0.000823
20949000,0.0324,0.013523,0.002678,0.000431,0.000823
20950000,0.0324,0.013523,0.002678,0.000431,0.000940
20951000,0.0324,0.013523,0.002678,0.000431,0.000940
20952000,0.0324,0.013523,0.002678,0.000431,0.000705
20953000,0.0324,0.013523,0.002678,0.000431,0.000940
20954000,0.0324,0.013523,0.002678,0.000431,0.000705
20955000,0.0324,0.013523,0.002678,0.000431,0.000940
20956000,0.0324,0.013523,0.002678,0.000431,0.000470
20957000,0.0324,0.013523,0.002678,0.000431,0.000705
20958000,0.0324,0.013523,0.002678,0.000431,0.000940
20959000,0.0324,0.013523,0.002678,0.000431,0.000470
20960000,0.0324,0.013523,0.002678,0.000431,0.000940
20961000,0.0324,0.013523,0.002678,0.000431,0.000705
20962000,0.0324,0.013523,0.002678,0.000431,0.000940
20963000,0.0324,0.013523,0.002678,0.000431,0.000940
20964000,0.0324,0.013523,0.002678,0.000431,0.000940
20965000,0.0324,0.013523,0.002678,0.000431,0.000705
20966000,0.0324,0.013523,0.002678,0.000431,0.000940
20967000,0.0324,0.013523,0.002678,0.000431,0.000705
20968000,0.0324,0.013523,0.002678,0.000431,0.000823
20969000,0.0324,0.013523,0.002678,0.000431,0.000823
20970000,0.0324,0.013523,0.002678,0.000431,0.001058
20971000,0.0324,0.013523,0.002678,0.000431,0.000940
20972000,0.0324,0.013523,0.002678,0.000431,0.000823
20973000,0.0324,0.013523,0.002678,0.000431,0.000940
20974000,0.0324,0.013523,0.002678,0.000431,0.000940
20975000,0.0324,0.013523,0.002678,0.000431,0.000705
20976000,0.0324,0.013523,0.002678,0.000431,0.000940
20977000,0.0324,0.013523,0.002678,0.000431,0.000940
20978000,0.0324,0.013523,0.002678,0.000431,0.001058
20979000,0.0324,0.013523,0.002678,0.000431,0.000940
20980000,0.0324,0.013523,0.002678,0.000431,0.000823
20981000,0.0324,0.013523,0.002678,0.000431,0.000705
20982000,0.0324,0.013523,0.002678,0.000431,0.001058
20983000,0.0324,0.013523,0.002678,0.000431,0.000588
20984000,0.0324,0.013523,0.002678,0.000431,0.000940
20985000,0.0324,0.013523,0.002678,0.000431,0.000705
20986000,0.0324,0.013523,0.002678,0.000431,0.000940
20987000,0.0324,0.013523,0.002678,0.000431,0.000940
20988000,0.0324,0.013523,0.002678,0.000431,0.000588
20989000,0.0324,0.013523,0.002678,0.000431,0.000940
20990000,0.0324,0.013523,0.002678,0.000431,0.000823
20991000,0.0324,0.013523,0.002678,0.000431,0.000705
20992000,0.0324,0.013523,0.002678,0.000431,0.001058
20993000,0.0324,0.013523,0.002678,0.000431,0.000940
20994000,0.0324,0.013523,0.002678,0.000431,0.000940
20995000,0.0324,0.013523,0.002678,0.000431,0.000823
20996000,0.0324,0.013523,0.002678,0.000431,0.001058
20997000,0.0324,0.013523,0.002678,0.000431,0.000940
20998000,0.0324,0.013523,0.002678,0.000431,0.000940
20999000,0.0324,0.013523,0.002678,0.000431,0.000588
