Cycle,Area(mm^2),PeakDynamic(W),SubthresholdLeakage(W),GateLeakage(W),RunTimeDynamic(W)
1000,0.0324,0.013523,0.002678,0.000431,0.000000
2000,0.0324,0.013523,0.002678,0.000431,0.000000
3000,0.0324,0.013523,0.002678,0.000431,0.000000
4000,0.0324,0.013523,0.002678,0.000431,0.000000
5000,0.0324,0.013523,0.002678,0.000431,0.000000
6000,0.0324,0.013523,0.002678,0.000431,1.457232
7000,0.0324,0.013523,0.002678,0.000431,2.146300
8000,0.0324,0.013523,0.002678,0.000431,1.684179
9000,0.0324,0.013523,0.002678,0.000431,2.231625
10000,0.0324,0.013523,0.002678,0.000431,3.038691
11000,0.0324,0.013523,0.002678,0.000431,2.925629
12000,0.0324,0.013523,0.002678,0.000431,4.200222
13000,0.0324,0.013523,0.002678,0.000431,3.981502
14000,0.0324,0.013523,0.002678,0.000431,3.957997
15000,0.0324,0.013523,0.002678,0.000431,3.873964
16000,0.0324,0.013523,0.002678,0.000431,3.987496
17000,0.0324,0.013523,0.002678,0.000431,4.046495
18000,0.0324,0.013523,0.002678,0.000431,4.030159
19000,0.0324,0.013523,0.002678,0.000431,4.015820
20000,0.0324,0.013523,0.002678,0.000431,4.035800
21000,0.0324,0.013523,0.002678,0.000431,4.041559
22000,0.0324,0.013523,0.002678,0.000431,4.021697
23000,0.0324,0.013523,0.002678,0.000431,4.058953
24000,0.0324,0.013523,0.002678,0.000431,4.073997
25000,0.0324,0.013523,0.002678,0.000431,4.013000
26000,0.0324,0.013523,0.002678,0.000431,4.035565
27000,0.0324,0.013523,0.002678,0.000431,4.041324
28000,0.0324,0.013523,0.002678,0.000431,4.039444
29000,0.0324,0.013523,0.002678,0.000431,4.029336
30000,0.0324,0.013523,0.002678,0.000431,4.036623
31000,0.0324,0.013523,0.002678,0.000431,4.070118
32000,0.0324,0.013523,0.002678,0.000431,4.081049
33000,0.0324,0.013523,0.002678,0.000431,4.013587
34000,0.0324,0.013523,0.002678,0.000431,4.031217
35000,0.0324,0.013523,0.002678,0.000431,4.065065
36000,0.0324,0.013523,0.002678,0.000431,4.072939
37000,0.0324,0.013523,0.002678,0.000431,4.083634
38000,0.0324,0.013523,0.002678,0.000431,4.030276
39000,0.0324,0.013523,0.002678,0.000431,4.081519
40000,0.0324,0.013523,0.002678,0.000431,4.055545
41000,0.0324,0.013523,0.002678,0.000431,4.087160
42000,0.0324,0.013523,0.002678,0.000431,4.059306
43000,0.0324,0.013523,0.002678,0.000431,4.022990
44000,0.0324,0.013523,0.002678,0.000431,4.050491
45000,0.0324,0.013523,0.002678,0.000431,4.078816
46000,0.0324,0.013523,0.002678,0.000431,4.020522
47000,0.0324,0.013523,0.002678,0.000431,4.067533
48000,0.0324,0.013523,0.002678,0.000431,4.054252
49000,0.0324,0.013523,0.002678,0.000431,4.021814
50000,0.0324,0.013523,0.002678,0.000431,4.102674
51000,0.0324,0.013523,0.002678,0.000431,4.036035
52000,0.0324,0.013523,0.002678,0.000431,4.078698
53000,0.0324,0.013523,0.002678,0.000431,4.054252
54000,0.0324,0.013523,0.002678,0.000431,3.990787
55000,0.0324,0.013523,0.002678,0.000431,4.056955
56000,0.0324,0.013523,0.002678,0.000431,4.071411
57000,0.0324,0.013523,0.002678,0.000431,4.027338
58000,0.0324,0.013523,0.002678,0.000431,4.030394
59000,0.0324,0.013523,0.002678,0.000431,4.063302
60000,0.0324,0.013523,0.002678,0.000431,4.090686
61000,0.0324,0.013523,0.002678,0.000431,4.084104
62000,0.0324,0.013523,0.002678,0.000431,4.064477
63000,0.0324,0.013523,0.002678,0.000431,4.121831
64000,0.0324,0.013523,0.002678,0.000431,4.109373
65000,0.0324,0.013523,0.002678,0.000431,4.060246
66000,0.0324,0.013523,0.002678,0.000431,4.095740
67000,0.0324,0.013523,0.002678,0.000431,4.116895
68000,0.0324,0.013523,0.002678,0.000431,4.093272
69000,0.0324,0.013523,0.002678,0.000431,4.062009
70000,0.0324,0.013523,0.002678,0.000431,4.105847
71000,0.0324,0.013523,0.002678,0.000431,4.040149
72000,0.0324,0.013523,0.002678,0.000431,4.087513
73000,0.0324,0.013523,0.002678,0.000431,4.108903
74000,0.0324,0.013523,0.002678,0.000431,4.028984
75000,0.0324,0.013523,0.002678,0.000431,4.088335
76000,0.0324,0.013523,0.002678,0.000431,4.079991
77000,0.0324,0.013523,0.002678,0.000431,4.044850
78000,0.0324,0.013523,0.002678,0.000431,4.012647
79000,0.0324,0.013523,0.002678,0.000431,4.043910
80000,0.0324,0.013523,0.002678,0.000431,4.087748
81000,0.0324,0.013523,0.002678,0.000431,4.107610
82000,0.0324,0.013523,0.002678,0.000431,4.067415
83000,0.0324,0.013523,0.002678,0.000431,4.116190
84000,0.0324,0.013523,0.002678,0.000431,4.055780
85000,0.0324,0.013523,0.002678,0.000431,4.089981
86000,0.0324,0.013523,0.002678,0.000431,4.075760
87000,0.0324,0.013523,0.002678,0.000431,4.058718
88000,0.0324,0.013523,0.002678,0.000431,4.026868
89000,0.0324,0.013523,0.002678,0.000431,4.018641
90000,0.0324,0.013523,0.002678,0.000431,3.968104
91000,0.0324,0.013523,0.002678,0.000431,3.945774
92000,0.0324,0.013523,0.002678,0.000431,3.930377
93000,0.0324,0.013523,0.002678,0.000431,3.872436
94000,0.0324,0.013523,0.002678,0.000431,3.852574
95000,0.0324,0.013523,0.002678,0.000431,3.697554
96000,0.0324,0.013523,0.002678,0.000431,3.640200
97000,0.0324,0.013523,0.002678,0.000431,3.495171
98000,0.0324,0.013523,0.002678,0.000431,3.348848
99000,0.0324,0.013523,0.002678,0.000431,3.197824
100000,0.0324,0.013523,0.002678,0.000431,3.031522
101000,0.0324,0.013523,0.002678,0.000431,2.895777
102000,0.0324,0.013523,0.002678,0.000431,2.777779
103000,0.0324,0.013523,0.002678,0.000431,2.609478
104000,0.0324,0.013523,0.002678,0.000431,2.487131
105000,0.0324,0.013523,0.002678,0.000431,2.354442
106000,0.0324,0.013523,0.002678,0.000431,2.251487
107000,0.0324,0.013523,0.002678,0.000431,2.123852
108000,0.0324,0.013523,0.002678,0.000431,2.059211
109000,0.0324,0.013523,0.002678,0.000431,1.943446
110000,0.0324,0.013523,0.002678,0.000431,1.805703
111000,0.0324,0.013523,0.002678,0.000431,1.722140
112000,0.0324,0.013523,0.002678,0.000431,1.697107
113000,0.0324,0.013523,0.002678,0.000431,1.602732
114000,0.0324,0.013523,0.002678,0.000431,1.525986
115000,0.0324,0.013523,0.002678,0.000431,1.447242
116000,0.0324,0.013523,0.002678,0.000431,1.428673
117000,0.0324,0.013523,0.002678,0.000431,1.354042
118000,0.0324,0.013523,0.002678,0.000431,1.308676
119000,0.0324,0.013523,0.002678,0.000431,1.307031
120000,0.0324,0.013523,0.002678,0.000431,1.263898
121000,0.0324,0.013523,0.002678,0.000431,1.229932
122000,0.0324,0.013523,0.002678,0.000431,1.213596
123000,0.0324,0.013523,0.002678,0.000431,1.139671
124000,0.0324,0.013523,0.002678,0.000431,1.116635
125000,0.0324,0.013523,0.002678,0.000431,1.136498
126000,0.0324,0.013523,0.002678,0.000431,1.068919
127000,0.0324,0.013523,0.002678,0.000431,1.052112
128000,0.0324,0.013523,0.002678,0.000431,1.022378
129000,0.0324,0.013523,0.002678,0.000431,1.004748
130000,0.0324,0.013523,0.002678,0.000431,0.972781
131000,0.0324,0.013523,0.002678,0.000431,0.939755
132000,0.0324,0.013523,0.002678,0.000431,0.913194
133000,0.0324,0.013523,0.002678,0.000431,0.907435
134000,0.0324,0.013523,0.002678,0.000431,0.847966
135000,0.0324,0.013523,0.002678,0.000431,0.863950
136000,0.0324,0.013523,0.002678,0.000431,0.822227
137000,0.0324,0.013523,0.002678,0.000431,0.789084
138000,0.0324,0.013523,0.002678,0.000431,0.775568
139000,0.0324,0.013523,0.002678,0.000431,0.758527
140000,0.0324,0.013523,0.002678,0.000431,0.724561
141000,0.0324,0.013523,0.002678,0.000431,0.715041
142000,0.0324,0.013523,0.002678,0.000431,0.683896
143000,0.0324,0.013523,0.002678,0.000431,0.671086
144000,0.0324,0.013523,0.002678,0.000431,0.657453
145000,0.0324,0.013523,0.002678,0.000431,0.632067
146000,0.0324,0.013523,0.002678,0.000431,0.615260
147000,0.0324,0.013523,0.002678,0.000431,0.590814
148000,0.0324,0.013523,0.002678,0.000431,0.569424
149000,0.0324,0.013523,0.002678,0.000431,0.568836
150000,0.0324,0.013523,0.002678,0.000431,0.533108
151000,0.0324,0.013523,0.002678,0.000431,0.515831
152000,0.0324,0.013523,0.002678,0.000431,0.509720
153000,0.0324,0.013523,0.002678,0.000431,0.488917
154000,0.0324,0.013523,0.002678,0.000431,0.482923
155000,0.0324,0.013523,0.002678,0.000431,0.462238
156000,0.0324,0.013523,0.002678,0.000431,0.446490
157000,0.0324,0.013523,0.002678,0.000431,0.432386
158000,0.0324,0.013523,0.002678,0.000431,0.414757
159000,0.0324,0.013523,0.002678,0.000431,0.407235
160000,0.0324,0.013523,0.002678,0.000431,0.385140
161000,0.0324,0.013523,0.002678,0.000431,0.385492
162000,0.0324,0.013523,0.002678,0.000431,0.361164
163000,0.0324,0.013523,0.002678,0.000431,0.358578
164000,0.0324,0.013523,0.002678,0.000431,0.335190
165000,0.0324,0.013523,0.002678,0.000431,0.323085
166000,0.0324,0.013523,0.002678,0.000431,0.309804
167000,0.0324,0.013523,0.002678,0.000431,0.303928
168000,0.0324,0.013523,0.002678,0.000431,0.294526
169000,0.0324,0.013523,0.002678,0.000431,0.292528
170000,0.0324,0.013523,0.002678,0.000431,0.268787
171000,0.0324,0.013523,0.002678,0.000431,0.267612
172000,0.0324,0.013523,0.002678,0.000431,0.250570
173000,0.0324,0.013523,0.002678,0.000431,0.241638
174000,0.0324,0.013523,0.002678,0.000431,0.238582
175000,0.0324,0.013523,0.002678,0.000431,0.226829
176000,0.0324,0.013523,0.002678,0.000431,0.227770
177000,0.0324,0.013523,0.002678,0.000431,0.209318
178000,0.0324,0.013523,0.002678,0.000431,0.202501
179000,0.0324,0.013523,0.002678,0.000431,0.196860
180000,0.0324,0.013523,0.002678,0.000431,0.189220
181000,0.0324,0.013523,0.002678,0.000431,0.188280
182000,0.0324,0.013523,0.002678,0.000431,0.178643
183000,0.0324,0.013523,0.002678,0.000431,0.174882
184000,0.0324,0.013523,0.002678,0.000431,0.169946
185000,0.0324,0.013523,0.002678,0.000431,0.166302
186000,0.0324,0.013523,0.002678,0.000431,0.157135
187000,0.0324,0.013523,0.002678,0.000431,0.152787
188000,0.0324,0.013523,0.002678,0.000431,0.149848
189000,0.0324,0.013523,0.002678,0.000431,0.143149
190000,0.0324,0.013523,0.002678,0.000431,0.136215
191000,0.0324,0.013523,0.002678,0.000431,0.134687
192000,0.0324,0.013523,0.002678,0.000431,0.131984
193000,0.0324,0.013523,0.002678,0.000431,0.124462
194000,0.0324,0.013523,0.002678,0.000431,0.126460
195000,0.0324,0.013523,0.002678,0.000431,0.113062
196000,0.0324,0.013523,0.002678,0.000431,0.109771
197000,0.0324,0.013523,0.002678,0.000431,0.105305
198000,0.0324,0.013523,0.002678,0.000431,0.101897
199000,0.0324,0.013523,0.002678,0.000431,0.096138
200000,0.0324,0.013523,0.002678,0.000431,0.095433
201000,0.0324,0.013523,0.002678,0.000431,0.097783
202000,0.0324,0.013523,0.002678,0.000431,0.088734
203000,0.0324,0.013523,0.002678,0.000431,0.091084
204000,0.0324,0.013523,0.002678,0.000431,0.085090
205000,0.0324,0.013523,0.002678,0.000431,0.078039
206000,0.0324,0.013523,0.002678,0.000431,0.079567
207000,0.0324,0.013523,0.002678,0.000431,0.076746
208000,0.0324,0.013523,0.002678,0.000431,0.070869
209000,0.0324,0.013523,0.002678,0.000431,0.074043
210000,0.0324,0.013523,0.002678,0.000431,0.068401
211000,0.0324,0.013523,0.002678,0.000431,0.069459
212000,0.0324,0.013523,0.002678,0.000431,0.071222
213000,0.0324,0.013523,0.002678,0.000431,0.063583
214000,0.0324,0.013523,0.002678,0.000431,0.062055
215000,0.0324,0.013523,0.002678,0.000431,0.061937
216000,0.0324,0.013523,0.002678,0.000431,0.063818
217000,0.0324,0.013523,0.002678,0.000431,0.055826
218000,0.0324,0.013523,0.002678,0.000431,0.056649
219000,0.0324,0.013523,0.002678,0.000431,0.055121
220000,0.0324,0.013523,0.002678,0.000431,0.052535
221000,0.0324,0.013523,0.002678,0.000431,0.052183
222000,0.0324,0.013523,0.002678,0.000431,0.047129
223000,0.0324,0.013523,0.002678,0.000431,0.045954
224000,0.0324,0.013523,0.002678,0.000431,0.041487
225000,0.0324,0.013523,0.002678,0.000431,0.042898
226000,0.0324,0.013523,0.002678,0.000431,0.043956
227000,0.0324,0.013523,0.002678,0.000431,0.038902
228000,0.0324,0.013523,0.002678,0.000431,0.038784
229000,0.0324,0.013523,0.002678,0.000431,0.038197
230000,0.0324,0.013523,0.002678,0.000431,0.033966
231000,0.0324,0.013523,0.002678,0.000431,0.035258
232000,0.0324,0.013523,0.002678,0.000431,0.034788
233000,0.0324,0.013523,0.002678,0.000431,0.031968
234000,0.0324,0.013523,0.002678,0.000431,0.031733
235000,0.0324,0.013523,0.002678,0.000431,0.033025
236000,0.0324,0.013523,0.002678,0.000431,0.030910
237000,0.0324,0.013523,0.002678,0.000431,0.032555
238000,0.0324,0.013523,0.002678,0.000431,0.028912
239000,0.0324,0.013523,0.002678,0.000431,0.029500
240000,0.0324,0.013523,0.002678,0.000431,0.029265
241000,0.0324,0.013523,0.002678,0.000431,0.025856
242000,0.0324,0.013523,0.002678,0.000431,0.024211
243000,0.0324,0.013523,0.002678,0.000431,0.026679
244000,0.0324,0.013523,0.002678,0.000431,0.023858
245000,0.0324,0.013523,0.002678,0.000431,0.023506
246000,0.0324,0.013523,0.002678,0.000431,0.022448
247000,0.0324,0.013523,0.002678,0.000431,0.020685
248000,0.0324,0.013523,0.002678,0.000431,0.022565
249000,0.0324,0.013523,0.002678,0.000431,0.021390
250000,0.0324,0.013523,0.002678,0.000431,0.018099
251000,0.0324,0.013523,0.002678,0.000431,0.018099
252000,0.0324,0.013523,0.002678,0.000431,0.017159
253000,0.0324,0.013523,0.002678,0.000431,0.018922
254000,0.0324,0.013523,0.002678,0.000431,0.016454
255000,0.0324,0.013523,0.002678,0.000431,0.019040
256000,0.0324,0.013523,0.002678,0.000431,0.016807
257000,0.0324,0.013523,0.002678,0.000431,0.016336
258000,0.0324,0.013523,0.002678,0.000431,0.016336
259000,0.0324,0.013523,0.002678,0.000431,0.016219
260000,0.0324,0.013523,0.002678,0.000431,0.015396
261000,0.0324,0.013523,0.002678,0.000431,0.014691
262000,0.0324,0.013523,0.002678,0.000431,0.013751
263000,0.0324,0.013523,0.002678,0.000431,0.014103
264000,0.0324,0.013523,0.002678,0.000431,0.016336
265000,0.0324,0.013523,0.002678,0.000431,0.015161
266000,0.0324,0.013523,0.002678,0.000431,0.014456
267000,0.0324,0.013523,0.002678,0.000431,0.013751
268000,0.0324,0.013523,0.002678,0.000431,0.014338
269000,0.0324,0.013523,0.002678,0.000431,0.012811
270000,0.0324,0.013523,0.002678,0.000431,0.012576
271000,0.0324,0.013523,0.002678,0.000431,0.011988
272000,0.0324,0.013523,0.002678,0.000431,0.013633
273000,0.0324,0.013523,0.002678,0.000431,0.011400
274000,0.0324,0.013523,0.002678,0.000431,0.012340
275000,0.0324,0.013523,0.002678,0.000431,0.012105
276000,0.0324,0.013523,0.002678,0.000431,0.011283
277000,0.0324,0.013523,0.002678,0.000431,0.010578
278000,0.0324,0.013523,0.002678,0.000431,0.010578
279000,0.0324,0.013523,0.002678,0.000431,0.009755
280000,0.0324,0.013523,0.002678,0.000431,0.010107
281000,0.0324,0.013523,0.002678,0.000431,0.010930
282000,0.0324,0.013523,0.002678,0.000431,0.008580
283000,0.0324,0.013523,0.002678,0.000431,0.009285
284000,0.0324,0.013523,0.002678,0.000431,0.009990
285000,0.0324,0.013523,0.002678,0.000431,0.008580
286000,0.0324,0.013523,0.002678,0.000431,0.008932
287000,0.0324,0.013523,0.002678,0.000431,0.007757
288000,0.0324,0.013523,0.002678,0.000431,0.008815
289000,0.0324,0.013523,0.002678,0.000431,0.007992
290000,0.0324,0.013523,0.002678,0.000431,0.008109
291000,0.0324,0.013523,0.002678,0.000431,0.008462
292000,0.0324,0.013523,0.002678,0.000431,0.008109
293000,0.0324,0.013523,0.002678,0.000431,0.009637
294000,0.0324,0.013523,0.002678,0.000431,0.007404
295000,0.0324,0.013523,0.002678,0.000431,0.007757
296000,0.0324,0.013523,0.002678,0.000431,0.006699
297000,0.0324,0.013523,0.002678,0.000431,0.006582
298000,0.0324,0.013523,0.002678,0.000431,0.006582
299000,0.0324,0.013523,0.002678,0.000431,0.007052
300000,0.0324,0.013523,0.002678,0.000431,0.005641
301000,0.0324,0.013523,0.002678,0.000431,0.006347
302000,0.0324,0.013523,0.002678,0.000431,0.006817
303000,0.0324,0.013523,0.002678,0.000431,0.005759
304000,0.0324,0.013523,0.002678,0.000431,0.005289
305000,0.0324,0.013523,0.002678,0.000431,0.004584
306000,0.0324,0.013523,0.002678,0.000431,0.005524
307000,0.0324,0.013523,0.002678,0.000431,0.005759
308000,0.0324,0.013523,0.002678,0.000431,0.005641
309000,0.0324,0.013523,0.002678,0.000431,0.006111
310000,0.0324,0.013523,0.002678,0.000431,0.005171
311000,0.0324,0.013523,0.002678,0.000431,0.005876
312000,0.0324,0.013523,0.002678,0.000431,0.004936
313000,0.0324,0.013523,0.002678,0.000431,0.005406
314000,0.0324,0.013523,0.002678,0.000431,0.004701
315000,0.0324,0.013523,0.002678,0.000431,0.005524
316000,0.0324,0.013523,0.002678,0.000431,0.005171
317000,0.0324,0.013523,0.002678,0.000431,0.005406
318000,0.0324,0.013523,0.002678,0.000431,0.005406
319000,0.0324,0.013523,0.002678,0.000431,0.006111
320000,0.0324,0.013523,0.002678,0.000431,0.005289
321000,0.0324,0.013523,0.002678,0.000431,0.005171
322000,0.0324,0.013523,0.002678,0.000431,0.004701
323000,0.0324,0.013523,0.002678,0.000431,0.004819
324000,0.0324,0.013523,0.002678,0.000431,0.005054
325000,0.0324,0.013523,0.002678,0.000431,0.004701
326000,0.0324,0.013523,0.002678,0.000431,0.004231
327000,0.0324,0.013523,0.002678,0.000431,0.004936
328000,0.0324,0.013523,0.002678,0.000431,0.004584
329000,0.0324,0.013523,0.002678,0.000431,0.005524
330000,0.0324,0.013523,0.002678,0.000431,0.003173
331000,0.0324,0.013523,0.002678,0.000431,0.004936
332000,0.0324,0.013523,0.002678,0.000431,0.005054
333000,0.0324,0.013523,0.002678,0.000431,0.004701
334000,0.0324,0.013523,0.002678,0.000431,0.004819
335000,0.0324,0.013523,0.002678,0.000431,0.004466
336000,0.0324,0.013523,0.002678,0.000431,0.004584
337000,0.0324,0.013523,0.002678,0.000431,0.003761
338000,0.0324,0.013523,0.002678,0.000431,0.003996
339000,0.0324,0.013523,0.002678,0.000431,0.003878
340000,0.0324,0.013523,0.002678,0.000431,0.004113
341000,0.0324,0.013523,0.002678,0.000431,0.003761
342000,0.0324,0.013523,0.002678,0.000431,0.004349
343000,0.0324,0.013523,0.002678,0.000431,0.004113
344000,0.0324,0.013523,0.002678,0.000431,0.003878
345000,0.0324,0.013523,0.002678,0.000431,0.004113
346000,0.0324,0.013523,0.002678,0.000431,0.004701
347000,0.0324,0.013523,0.002678,0.000431,0.003056
348000,0.0324,0.013523,0.002678,0.000431,0.003526
349000,0.0324,0.013523,0.002678,0.000431,0.003408
350000,0.0324,0.013523,0.002678,0.000431,0.003526
351000,0.0324,0.013523,0.002678,0.000431,0.003761
352000,0.0324,0.013523,0.002678,0.000431,0.004584
353000,0.0324,0.013523,0.002678,0.000431,0.003878
354000,0.0324,0.013523,0.002678,0.000431,0.003291
355000,0.0324,0.013523,0.002678,0.000431,0.003056
356000,0.0324,0.013523,0.002678,0.000431,0.003408
357000,0.0324,0.013523,0.002678,0.000431,0.003056
358000,0.0324,0.013523,0.002678,0.000431,0.003291
359000,0.0324,0.013523,0.002678,0.000431,0.002938
360000,0.0324,0.013523,0.002678,0.000431,0.002468
361000,0.0324,0.013523,0.002678,0.000431,0.003291
362000,0.0324,0.013523,0.002678,0.000431,0.003056
363000,0.0324,0.013523,0.002678,0.000431,0.003408
364000,0.0324,0.013523,0.002678,0.000431,0.002351
365000,0.0324,0.013523,0.002678,0.000431,0.003643
366000,0.0324,0.013523,0.002678,0.000431,0.002821
367000,0.0324,0.013523,0.002678,0.000431,0.003056
368000,0.0324,0.013523,0.002678,0.000431,0.002586
369000,0.0324,0.013523,0.002678,0.000431,0.002821
370000,0.0324,0.013523,0.002678,0.000431,0.002586
371000,0.0324,0.013523,0.002678,0.000431,0.003291
372000,0.0324,0.013523,0.002678,0.000431,0.002586
373000,0.0324,0.013523,0.002678,0.000431,0.003408
374000,0.0324,0.013523,0.002678,0.000431,0.002703
375000,0.0324,0.013523,0.002678,0.000431,0.002703
376000,0.0324,0.013523,0.002678,0.000431,0.002586
377000,0.0324,0.013523,0.002678,0.000431,0.002586
378000,0.0324,0.013523,0.002678,0.000431,0.002821
379000,0.0324,0.013523,0.002678,0.000431,0.002703
380000,0.0324,0.013523,0.002678,0.000431,0.003056
381000,0.0324,0.013523,0.002678,0.000431,0.002468
382000,0.0324,0.013523,0.002678,0.000431,0.003056
383000,0.0324,0.013523,0.002678,0.000431,0.003056
384000,0.0324,0.013523,0.002678,0.000431,0.003408
385000,0.0324,0.013523,0.002678,0.000431,0.003056
386000,0.0324,0.013523,0.002678,0.000431,0.002821
387000,0.0324,0.013523,0.002678,0.000431,0.002233
388000,0.0324,0.013523,0.002678,0.000431,0.002586
389000,0.0324,0.013523,0.002678,0.000431,0.002938
390000,0.0324,0.013523,0.002678,0.000431,0.002351
391000,0.0324,0.013523,0.002678,0.000431,0.002468
392000,0.0324,0.013523,0.002678,0.000431,0.001998
393000,0.0324,0.013523,0.002678,0.000431,0.002468
394000,0.0324,0.013523,0.002678,0.000431,0.002468
395000,0.0324,0.013523,0.002678,0.000431,0.002116
396000,0.0324,0.013523,0.002678,0.000431,0.002233
397000,0.0324,0.013523,0.002678,0.000431,0.001998
398000,0.0324,0.013523,0.002678,0.000431,0.002938
399000,0.0324,0.013523,0.002678,0.000431,0.002116
400000,0.0324,0.013523,0.002678,0.000431,0.002938
401000,0.0324,0.013523,0.002678,0.000431,0.002821
402000,0.0324,0.013523,0.002678,0.000431,0.003056
403000,0.0324,0.013523,0.002678,0.000431,0.002703
404000,0.0324,0.013523,0.002678,0.000431,0.002468
405000,0.0324,0.013523,0.002678,0.000431,0.002233
406000,0.0324,0.013523,0.002678,0.000431,0.002116
407000,0.0324,0.013523,0.002678,0.000431,0.002468
408000,0.0324,0.013523,0.002678,0.000431,0.002468
409000,0.0324,0.013523,0.002678,0.000431,0.002703
410000,0.0324,0.013523,0.002678,0.000431,0.002938
411000,0.0324,0.013523,0.002678,0.000431,0.001763
412000,0.0324,0.013523,0.002678,0.000431,0.001880
413000,0.0324,0.013523,0.002678,0.000431,0.001998
414000,0.0324,0.013523,0.002678,0.000431,0.002233
415000,0.0324,0.013523,0.002678,0.000431,0.002468
416000,0.0324,0.013523,0.002678,0.000431,0.001410
417000,0.0324,0.013523,0.002678,0.000431,0.001528
418000,0.0324,0.013523,0.002678,0.000431,0.002116
419000,0.0324,0.013523,0.002678,0.000431,0.001645
420000,0.0324,0.013523,0.002678,0.000431,0.001763
421000,0.0324,0.013523,0.002678,0.000431,0.001293
422000,0.0324,0.013523,0.002678,0.000431,0.001998
423000,0.0324,0.013523,0.002678,0.000431,0.001293
424000,0.0324,0.013523,0.002678,0.000431,0.001880
425000,0.0324,0.013523,0.002678,0.000431,0.000940
426000,0.0324,0.013523,0.002678,0.000431,0.001880
427000,0.0324,0.013523,0.002678,0.000431,0.001645
428000,0.0324,0.013523,0.002678,0.000431,0.001528
429000,0.0324,0.013523,0.002678,0.000431,0.001645
430000,0.0324,0.013523,0.002678,0.000431,0.001528
431000,0.0324,0.013523,0.002678,0.000431,0.001998
432000,0.0324,0.013523,0.002678,0.000431,0.001175
433000,0.0324,0.013523,0.002678,0.000431,0.001880
434000,0.0324,0.013523,0.002678,0.000431,0.001293
435000,0.0324,0.013523,0.002678,0.000431,0.001410
436000,0.0324,0.013523,0.002678,0.000431,0.001880
437000,0.0324,0.013523,0.002678,0.000431,0.001410
438000,0.0324,0.013523,0.002678,0.000431,0.001410
439000,0.0324,0.013523,0.002678,0.000431,0.001528
440000,0.0324,0.013523,0.002678,0.000431,0.001410
441000,0.0324,0.013523,0.002678,0.000431,0.001293
442000,0.0324,0.013523,0.002678,0.000431,0.001293
443000,0.0324,0.013523,0.002678,0.000431,0.001528
444000,0.0324,0.013523,0.002678,0.000431,0.001293
445000,0.0324,0.013523,0.002678,0.000431,0.001410
446000,0.0324,0.013523,0.002678,0.000431,0.001528
447000,0.0324,0.013523,0.002678,0.000431,0.001175
448000,0.0324,0.013523,0.002678,0.000431,0.001058
449000,0.0324,0.013523,0.002678,0.000431,0.000940
450000,0.0324,0.013523,0.002678,0.000431,0.000940
451000,0.0324,0.013523,0.002678,0.000431,0.001293
452000,0.0324,0.013523,0.002678,0.000431,0.000588
453000,0.0324,0.013523,0.002678,0.000431,0.001763
454000,0.0324,0.013523,0.002678,0.000431,0.000823
455000,0.0324,0.013523,0.002678,0.000431,0.001293
456000,0.0324,0.013523,0.002678,0.000431,0.001763
457000,0.0324,0.013523,0.002678,0.000431,0.001175
458000,0.0324,0.013523,0.002678,0.000431,0.002116
459000,0.0324,0.013523,0.002678,0.000431,0.001410
460000,0.0324,0.013523,0.002678,0.000431,0.001763
461000,0.0324,0.013523,0.002678,0.000431,0.001528
462000,0.0324,0.013523,0.002678,0.000431,0.001998
463000,0.0324,0.013523,0.002678,0.000431,0.001763
464000,0.0324,0.013523,0.002678,0.000431,0.001528
465000,0.0324,0.013523,0.002678,0.000431,0.001763
466000,0.0324,0.013523,0.002678,0.000431,0.001880
467000,0.0324,0.013523,0.002678,0.000431,0.001293
468000,0.0324,0.013523,0.002678,0.000431,0.000823
469000,0.0324,0.013523,0.002678,0.000431,0.001293
470000,0.0324,0.013523,0.002678,0.000431,0.001410
471000,0.0324,0.013523,0.002678,0.000431,0.000705
472000,0.0324,0.013523,0.002678,0.000431,0.001880
473000,0.0324,0.013523,0.002678,0.000431,0.000823
474000,0.0324,0.013523,0.002678,0.000431,0.002116
475000,0.0324,0.013523,0.002678,0.000431,0.001175
476000,0.0324,0.013523,0.002678,0.000431,0.001763
477000,0.0324,0.013523,0.002678,0.000431,0.001410
478000,0.0324,0.013523,0.002678,0.000431,0.000823
479000,0.0324,0.013523,0.002678,0.000431,0.001528
480000,0.0324,0.013523,0.002678,0.000431,0.001058
481000,0.0324,0.013523,0.002678,0.000431,0.001293
482000,0.0324,0.013523,0.002678,0.000431,0.001175
483000,0.0324,0.013523,0.002678,0.000431,0.001058
484000,0.0324,0.013523,0.002678,0.000431,0.000940
485000,0.0324,0.013523,0.002678,0.000431,0.000940
486000,0.0324,0.013523,0.002678,0.000431,0.001175
487000,0.0324,0.013523,0.002678,0.000431,0.000940
488000,0.0324,0.013523,0.002678,0.000431,0.001175
489000,0.0324,0.013523,0.002678,0.000431,0.001058
490000,0.0324,0.013523,0.002678,0.000431,0.001175
491000,0.0324,0.013523,0.002678,0.000431,0.001410
492000,0.0324,0.013523,0.002678,0.000431,0.000940
493000,0.0324,0.013523,0.002678,0.000431,0.001293
494000,0.0324,0.013523,0.002678,0.000431,0.001293
495000,0.0324,0.013523,0.002678,0.000431,0.001058
496000,0.0324,0.013523,0.002678,0.000431,0.000940
497000,0.0324,0.013523,0.002678,0.000431,0.000588
498000,0.0324,0.013523,0.002678,0.000431,0.000940
499000,0.0324,0.013523,0.002678,0.000431,0.000588
500000,0.0324,0.013523,0.002678,0.000431,0.000705
501000,0.0324,0.013523,0.002678,0.000431,0.001058
502000,0.0324,0.013523,0.002678,0.000431,0.000470
503000,0.0324,0.013523,0.002678,0.000431,0.000823
504000,0.0324,0.013523,0.002678,0.000431,0.000470
505000,0.0324,0.013523,0.002678,0.000431,0.000940
506000,0.0324,0.013523,0.002678,0.000431,0.000588
507000,0.0324,0.013523,0.002678,0.000431,0.000940
508000,0.0324,0.013523,0.002678,0.000431,0.000705
509000,0.0324,0.013523,0.002678,0.000431,0.000705
510000,0.0324,0.013523,0.002678,0.000431,0.000823
511000,0.0324,0.013523,0.002678,0.000431,0.000705
512000,0.0324,0.013523,0.002678,0.000431,0.000940
513000,0.0324,0.013523,0.002678,0.000431,0.000705
514000,0.0324,0.013523,0.002678,0.000431,0.000823
515000,0.0324,0.013523,0.002678,0.000431,0.000705
516000,0.0324,0.013523,0.002678,0.000431,0.000470
517000,0.0324,0.013523,0.002678,0.000431,0.000823
518000,0.0324,0.013523,0.002678,0.000431,0.000470
519000,0.0324,0.013523,0.002678,0.000431,0.000705
520000,0.0324,0.013523,0.002678,0.000431,0.000823
521000,0.0324,0.013523,0.002678,0.000431,0.000705
522000,0.0324,0.013523,0.002678,0.000431,0.000940
523000,0.0324,0.013523,0.002678,0.000431,0.000588
524000,0.0324,0.013523,0.002678,0.000431,0.001058
525000,0.0324,0.013523,0.002678,0.000431,0.000470
526000,0.0324,0.013523,0.002678,0.000431,0.000705
527000,0.0324,0.013523,0.002678,0.000431,0.000705
528000,0.0324,0.013523,0.002678,0.000431,0.000705
529000,0.0324,0.013523,0.002678,0.000431,0.001058
530000,0.0324,0.013523,0.002678,0.000431,0.000705
531000,0.0324,0.013523,0.002678,0.000431,0.000705
532000,0.0324,0.013523,0.002678,0.000431,0.000823
533000,0.0324,0.013523,0.002678,0.000431,0.000823
534000,0.0324,0.013523,0.002678,0.000431,0.000940
535000,0.0324,0.013523,0.002678,0.000431,0.000705
536000,0.0324,0.013523,0.002678,0.000431,0.000705
537000,0.0324,0.013523,0.002678,0.000431,0.000705
538000,0.0324,0.013523,0.002678,0.000431,0.000940
539000,0.0324,0.013523,0.002678,0.000431,0.000823
540000,0.0324,0.013523,0.002678,0.000431,0.000705
541000,0.0324,0.013523,0.002678,0.000431,0.000940
542000,0.0324,0.013523,0.002678,0.000431,0.000470
543000,0.0324,0.013523,0.002678,0.000431,0.001058
544000,0.0324,0.013523,0.002678,0.000431,0.000588
545000,0.0324,0.013523,0.002678,0.000431,0.000940
546000,0.0324,0.013523,0.002678,0.000431,0.000940
547000,0.0324,0.013523,0.002678,0.000431,0.000588
548000,0.0324,0.013523,0.002678,0.000431,0.001058
549000,0.0324,0.013523,0.002678,0.000431,0.000235
550000,0.0324,0.013523,0.002678,0.000431,0.000940
551000,0.0324,0.013523,0.002678,0.000431,0.000823
552000,0.0324,0.013523,0.002678,0.000431,0.000823
553000,0.0324,0.013523,0.002678,0.000431,0.000823
554000,0.0324,0.013523,0.002678,0.000431,0.000588
555000,0.0324,0.013523,0.002678,0.000431,0.001058
556000,0.0324,0.013523,0.002678,0.000431,0.000470
557000,0.0324,0.013523,0.002678,0.000431,0.000940
558000,0.0324,0.013523,0.002678,0.000431,0.001058
559000,0.0324,0.013523,0.002678,0.000431,0.000705
560000,0.0324,0.013523,0.002678,0.000431,0.000940
561000,0.0324,0.013523,0.002678,0.000431,0.000588
562000,0.0324,0.013523,0.002678,0.000431,0.001058
563000,0.0324,0.013523,0.002678,0.000431,0.000588
564000,0.0324,0.013523,0.002678,0.000431,0.000823
565000,0.0324,0.013523,0.002678,0.000431,0.000940
566000,0.0324,0.013523,0.002678,0.000431,0.000588
567000,0.0324,0.013523,0.002678,0.000431,0.001058
568000,0.0324,0.013523,0.002678,0.000431,0.000470
569000,0.0324,0.013523,0.002678,0.000431,0.001175
570000,0.0324,0.013523,0.002678,0.000431,0.000705
571000,0.0324,0.013523,0.002678,0.000431,0.000940
572000,0.0324,0.013523,0.002678,0.000431,0.000940
573000,0.0324,0.013523,0.002678,0.000431,0.000588
574000,0.0324,0.013523,0.002678,0.000431,0.001058
575000,0.0324,0.013523,0.002678,0.000431,0.000588
576000,0.0324,0.013523,0.002678,0.000431,0.000823
577000,0.0324,0.013523,0.002678,0.000431,0.000823
578000,0.0324,0.013523,0.002678,0.000431,0.000705
579000,0.0324,0.013523,0.002678,0.000431,0.001058
580000,0.0324,0.013523,0.002678,0.000431,0.000588
581000,0.0324,0.013523,0.002678,0.000431,0.001175
582000,0.0324,0.013523,0.002678,0.000431,0.000470
583000,0.0324,0.013523,0.002678,0.000431,0.000823
584000,0.0324,0.013523,0.002678,0.000431,0.000705
585000,0.0324,0.013523,0.002678,0.000431,0.000588
586000,0.0324,0.013523,0.002678,0.000431,0.000940
587000,0.0324,0.013523,0.002678,0.000431,0.000470
588000,0.0324,0.013523,0.002678,0.000431,0.000940
589000,0.0324,0.013523,0.002678,0.000431,0.000353
590000,0.0324,0.013523,0.002678,0.000431,0.000588
591000,0.0324,0.013523,0.002678,0.000431,0.000823
592000,0.0324,0.013523,0.002678,0.000431,0.000823
593000,0.0324,0.013523,0.002678,0.000431,0.000940
594000,0.0324,0.013523,0.002678,0.000431,0.000588
595000,0.0324,0.013523,0.002678,0.000431,0.000705
596000,0.0324,0.013523,0.002678,0.000431,0.000823
597000,0.0324,0.013523,0.002678,0.000431,0.000705
598000,0.0324,0.013523,0.002678,0.000431,0.000940
599000,0.0324,0.013523,0.002678,0.000431,0.000470
600000,0.0324,0.013523,0.002678,0.000431,0.000940
601000,0.0324,0.013523,0.002678,0.000431,0.000470
602000,0.0324,0.013523,0.002678,0.000431,0.000823
603000,0.0324,0.013523,0.002678,0.000431,0.000940
604000,0.0324,0.013523,0.002678,0.000431,0.000235
605000,0.0324,0.013523,0.002678,0.000431,0.000823
606000,0.0324,0.013523,0.002678,0.000431,0.000470
607000,0.0324,0.013523,0.002678,0.000431,0.001175
608000,0.0324,0.013523,0.002678,0.000431,0.000705
609000,0.0324,0.013523,0.002678,0.000431,0.000705
610000,0.0324,0.013523,0.002678,0.000431,0.000823
611000,0.0324,0.013523,0.002678,0.000431,0.000470
612000,0.0324,0.013523,0.002678,0.000431,0.001058
613000,0.0324,0.013523,0.002678,0.000431,0.000705
614000,0.0324,0.013523,0.002678,0.000431,0.000940
615000,0.0324,0.013523,0.002678,0.000431,0.000823
616000,0.0324,0.013523,0.002678,0.000431,0.000705
617000,0.0324,0.013523,0.002678,0.000431,0.001058
618000,0.0324,0.013523,0.002678,0.000431,0.000588
619000,0.0324,0.013523,0.002678,0.000431,0.000823
620000,0.0324,0.013523,0.002678,0.000431,0.000588
621000,0.0324,0.013523,0.002678,0.000431,0.000940
622000,0.0324,0.013523,0.002678,0.000431,0.000940
623000,0.0324,0.013523,0.002678,0.000431,0.000588
624000,0.0324,0.013523,0.002678,0.000431,0.000823
625000,0.0324,0.013523,0.002678,0.000431,0.000470
626000,0.0324,0.013523,0.002678,0.000431,0.001058
627000,0.0324,0.013523,0.002678,0.000431,0.000470
628000,0.0324,0.013523,0.002678,0.000431,0.000470
629000,0.0324,0.013523,0.002678,0.000431,0.000823
630000,0.0324,0.013523,0.002678,0.000431,0.000588
631000,0.0324,0.013523,0.002678,0.000431,0.001175
632000,0.0324,0.013523,0.002678,0.000431,0.000588
633000,0.0324,0.013523,0.002678,0.000431,0.000705
634000,0.0324,0.013523,0.002678,0.000431,0.000470
635000,0.0324,0.013523,0.002678,0.000431,0.000705
636000,0.0324,0.013523,0.002678,0.000431,0.000940
637000,0.0324,0.013523,0.002678,0.000431,0.000705
638000,0.0324,0.013523,0.002678,0.000431,0.001058
639000,0.0324,0.013523,0.002678,0.000431,0.000823
640000,0.0324,0.013523,0.002678,0.000431,0.000823
641000,0.0324,0.013523,0.002678,0.000431,0.000823
642000,0.0324,0.013523,0.002678,0.000431,0.000705
643000,0.0324,0.013523,0.002678,0.000431,0.000705
644000,0.0324,0.013523,0.002678,0.000431,0.000823
645000,0.0324,0.013523,0.002678,0.000431,0.000823
646000,0.0324,0.013523,0.002678,0.000431,0.000823
647000,0.0324,0.013523,0.002678,0.000431,0.000823
648000,0.0324,0.013523,0.002678,0.000431,0.001175
649000,0.0324,0.013523,0.002678,0.000431,0.000470
650000,0.0324,0.013523,0.002678,0.000431,0.001058
651000,0.0324,0.013523,0.002678,0.000431,0.000588
652000,0.0324,0.013523,0.002678,0.000431,0.000705
653000,0.0324,0.013523,0.002678,0.000431,0.000940
654000,0.0324,0.013523,0.002678,0.000431,0.000588
655000,0.0324,0.013523,0.002678,0.000431,0.001058
656000,0.0324,0.013523,0.002678,0.000431,0.000470
657000,0.0324,0.013523,0.002678,0.000431,0.001058
658000,0.0324,0.013523,0.002678,0.000431,0.000470
659000,0.0324,0.013523,0.002678,0.000431,0.000940
660000,0.0324,0.013523,0.002678,0.000431,0.000823
661000,0.0324,0.013523,0.002678,0.000431,0.000705
662000,0.0324,0.013523,0.002678,0.000431,0.000823
663000,0.0324,0.013523,0.002678,0.000431,0.000705
664000,0.0324,0.013523,0.002678,0.000431,0.000940
665000,0.0324,0.013523,0.002678,0.000431,0.000823
666000,0.0324,0.013523,0.002678,0.000431,0.000823
667000,0.0324,0.013523,0.002678,0.000431,0.000940
668000,0.0324,0.013523,0.002678,0.000431,0.000705
669000,0.0324,0.013523,0.002678,0.000431,0.000940
670000,0.0324,0.013523,0.002678,0.000431,0.000823
671000,0.0324,0.013523,0.002678,0.000431,0.000823
672000,0.0324,0.013523,0.002678,0.000431,0.000940
673000,0.0324,0.013523,0.002678,0.000431,0.000823
674000,0.0324,0.013523,0.002678,0.000431,0.001058
675000,0.0324,0.013523,0.002678,0.000431,0.000470
676000,0.0324,0.013523,0.002678,0.000431,0.000940
677000,0.0324,0.013523,0.002678,0.000431,0.000470
678000,0.0324,0.013523,0.002678,0.000431,0.000940
679000,0.0324,0.013523,0.002678,0.000431,0.000823
680000,0.0324,0.013523,0.002678,0.000431,0.000235
681000,0.0324,0.013523,0.002678,0.000431,0.000940
682000,0.0324,0.013523,0.002678,0.000431,0.000470
683000,0.0324,0.013523,0.002678,0.000431,0.000940
684000,0.0324,0.013523,0.002678,0.000431,0.000940
685000,0.0324,0.013523,0.002678,0.000431,0.000705
686000,0.0324,0.013523,0.002678,0.000431,0.000823
687000,0.0324,0.013523,0.002678,0.000431,0.000470
688000,0.0324,0.013523,0.002678,0.000431,0.001058
689000,0.0324,0.013523,0.002678,0.000431,0.000705
690000,0.0324,0.013523,0.002678,0.000431,0.000705
691000,0.0324,0.013523,0.002678,0.000431,0.000940
692000,0.0324,0.013523,0.002678,0.000431,0.000588
693000,0.0324,0.013523,0.002678,0.000431,0.001058
694000,0.0324,0.013523,0.002678,0.000431,0.000588
695000,0.0324,0.013523,0.002678,0.000431,0.000940
696000,0.0324,0.013523,0.002678,0.000431,0.000470
697000,0.0324,0.013523,0.002678,0.000431,0.000940
698000,0.0324,0.013523,0.002678,0.000431,0.000588
699000,0.0324,0.013523,0.002678,0.000431,0.000705
700000,0.0324,0.013523,0.002678,0.000431,0.000940
701000,0.0324,0.013523,0.002678,0.000431,0.000705
702000,0.0324,0.013523,0.002678,0.000431,0.000823
703000,0.0324,0.013523,0.002678,0.000431,0.000705
704000,0.0324,0.013523,0.002678,0.000431,0.000705
705000,0.0324,0.013523,0.002678,0.000431,0.001175
706000,0.0324,0.013523,0.002678,0.000431,0.000470
707000,0.0324,0.013523,0.002678,0.000431,0.001058
708000,0.0324,0.013523,0.002678,0.000431,0.000705
709000,0.0324,0.013523,0.002678,0.000431,0.000823
710000,0.0324,0.013523,0.002678,0.000431,0.000940
711000,0.0324,0.013523,0.002678,0.000431,0.000588
712000,0.0324,0.013523,0.002678,0.000431,0.001058
713000,0.0324,0.013523,0.002678,0.000431,0.000470
714000,0.0324,0.013523,0.002678,0.000431,0.001058
715000,0.0324,0.013523,0.002678,0.000431,0.000823
716000,0.0324,0.013523,0.002678,0.000431,0.000705
717000,0.0324,0.013523,0.002678,0.000431,0.000823
718000,0.0324,0.013523,0.002678,0.000431,0.000470
719000,0.0324,0.013523,0.002678,0.000431,0.000940
720000,0.0324,0.013523,0.002678,0.000431,0.000470
721000,0.0324,0.013523,0.002678,0.000431,0.000705
722000,0.0324,0.013523,0.002678,0.000431,0.000823
723000,0.0324,0.013523,0.002678,0.000431,0.000353
724000,0.0324,0.013523,0.002678,0.000431,0.000705
725000,0.0324,0.013523,0.002678,0.000431,0.000470
726000,0.0324,0.013523,0.002678,0.000431,0.000940
727000,0.0324,0.013523,0.002678,0.000431,0.000470
728000,0.0324,0.013523,0.002678,0.000431,0.000705
729000,0.0324,0.013523,0.002678,0.000431,0.000823
730000,0.0324,0.013523,0.002678,0.000431,0.000470
731000,0.0324,0.013523,0.002678,0.000431,0.000705
732000,0.0324,0.013523,0.002678,0.000431,0.000705
733000,0.0324,0.013523,0.002678,0.000431,0.000823
734000,0.0324,0.013523,0.002678,0.000431,0.000588
735000,0.0324,0.013523,0.002678,0.000431,0.000705
736000,0.0324,0.013523,0.002678,0.000431,0.000588
737000,0.0324,0.013523,0.002678,0.000431,0.000705
738000,0.0324,0.013523,0.002678,0.000431,0.000588
739000,0.0324,0.013523,0.002678,0.000431,0.000588
740000,0.0324,0.013523,0.002678,0.000431,0.000588
741000,0.0324,0.013523,0.002678,0.000431,0.000705
742000,0.0324,0.013523,0.002678,0.000431,0.000470
743000,0.0324,0.013523,0.002678,0.000431,0.000823
744000,0.0324,0.013523,0.002678,0.000431,0.000470
745000,0.0324,0.013523,0.002678,0.000431,0.000705
746000,0.0324,0.013523,0.002678,0.000431,0.000823
747000,0.0324,0.013523,0.002678,0.000431,0.000588
748000,0.0324,0.013523,0.002678,0.000431,0.000940
749000,0.0324,0.013523,0.002678,0.000431,0.000588
750000,0.0324,0.013523,0.002678,0.000431,0.000823
751000,0.0324,0.013523,0.002678,0.000431,0.000470
752000,0.0324,0.013523,0.002678,0.000431,0.000588
753000,0.0324,0.013523,0.002678,0.000431,0.000705
754000,0.0324,0.013523,0.002678,0.000431,0.000588
755000,0.0324,0.013523,0.002678,0.000431,0.000705
756000,0.0324,0.013523,0.002678,0.000431,0.000470
757000,0.0324,0.013523,0.002678,0.000431,0.000705
758000,0.0324,0.013523,0.002678,0.000431,0.000823
759000,0.0324,0.013523,0.002678,0.000431,0.000705
760000,0.0324,0.013523,0.002678,0.000431,0.000588
761000,0.0324,0.013523,0.002678,0.000431,0.000588
762000,0.0324,0.013523,0.002678,0.000431,0.000705
763000,0.0324,0.013523,0.002678,0.000431,0.000235
764000,0.0324,0.013523,0.002678,0.000431,0.000588
765000,0.0324,0.013523,0.002678,0.000431,0.000823
766000,0.0324,0.013523,0.002678,0.000431,0.000823
767000,0.0324,0.013523,0.002678,0.000431,0.000823
768000,0.0324,0.013523,0.002678,0.000431,0.000470
769000,0.0324,0.013523,0.002678,0.000431,0.000705
770000,0.0324,0.013523,0.002678,0.000431,0.000470
771000,0.0324,0.013523,0.002678,0.000431,0.000705
772000,0.0324,0.013523,0.002678,0.000431,0.000588
773000,0.0324,0.013523,0.002678,0.000431,0.000588
774000,0.0324,0.013523,0.002678,0.000431,0.000705
775000,0.0324,0.013523,0.002678,0.000431,0.000588
776000,0.0324,0.013523,0.002678,0.000431,0.000705
777000,0.0324,0.013523,0.002678,0.000431,0.000823
778000,0.0324,0.013523,0.002678,0.000431,0.000588
779000,0.0324,0.013523,0.002678,0.000431,0.000823
780000,0.0324,0.013523,0.002678,0.000431,0.000470
781000,0.0324,0.013523,0.002678,0.000431,0.000823
782000,0.0324,0.013523,0.002678,0.000431,0.000705
783000,0.0324,0.013523,0.002678,0.000431,0.000705
784000,0.0324,0.013523,0.002678,0.000431,0.000588
785000,0.0324,0.013523,0.002678,0.000431,0.000470
786000,0.0324,0.013523,0.002678,0.000431,0.000823
787000,0.0324,0.013523,0.002678,0.000431,0.000588
788000,0.0324,0.013523,0.002678,0.000431,0.000705
789000,0.0324,0.013523,0.002678,0.000431,0.000705
790000,0.0324,0.013523,0.002678,0.000431,0.000705
791000,0.0324,0.013523,0.002678,0.000431,0.000470
792000,0.0324,0.013523,0.002678,0.000431,0.000823
793000,0.0324,0.013523,0.002678,0.000431,0.000705
794000,0.0324,0.013523,0.002678,0.000431,0.000588
795000,0.0324,0.013523,0.002678,0.000431,0.000588
796000,0.0324,0.013523,0.002678,0.000431,0.000705
797000,0.0324,0.013523,0.002678,0.000431,0.000353
798000,0.0324,0.013523,0.002678,0.000431,0.000705
799000,0.0324,0.013523,0.002678,0.000431,0.000470
800000,0.0324,0.013523,0.002678,0.000431,0.000705
801000,0.0324,0.013523,0.002678,0.000431,0.000470
802000,0.0324,0.013523,0.002678,0.000431,0.000705
803000,0.0324,0.013523,0.002678,0.000431,0.000705
804000,0.0324,0.013523,0.002678,0.000431,0.000705
805000,0.0324,0.013523,0.002678,0.000431,0.000705
806000,0.0324,0.013523,0.002678,0.000431,0.000353
807000,0.0324,0.013523,0.002678,0.000431,0.000705
808000,0.0324,0.013523,0.002678,0.000431,0.000588
809000,0.0324,0.013523,0.002678,0.000431,0.000470
810000,0.0324,0.013523,0.002678,0.000431,0.000588
811000,0.0324,0.013523,0.002678,0.000431,0.000588
812000,0.0324,0.013523,0.002678,0.000431,0.000823
813000,0.0324,0.013523,0.002678,0.000431,0.000353
814000,0.0324,0.013523,0.002678,0.000431,0.000588
815000,0.0324,0.013523,0.002678,0.000431,0.000588
816000,0.0324,0.013523,0.002678,0.000431,0.000705
817000,0.0324,0.013523,0.002678,0.000431,0.000588
818000,0.0324,0.013523,0.002678,0.000431,0.000353
819000,0.0324,0.013523,0.002678,0.000431,0.000705
820000,0.0324,0.013523,0.002678,0.000431,0.000588
821000,0.0324,0.013523,0.002678,0.000431,0.000705
822000,0.0324,0.013523,0.002678,0.000431,0.000588
823000,0.0324,0.013523,0.002678,0.000431,0.000705
824000,0.0324,0.013523,0.002678,0.000431,0.000588
825000,0.0324,0.013523,0.002678,0.000431,0.000470
826000,0.0324,0.013523,0.002678,0.000431,0.000588
827000,0.0324,0.013523,0.002678,0.000431,0.000235
828000,0.0324,0.013523,0.002678,0.000431,0.000235
829000,0.0324,0.013523,0.002678,0.000431,0.000470
830000,0.0324,0.013523,0.002678,0.000431,0.000000
831000,0.0324,0.013523,0.002678,0.000431,0.000470
832000,0.0324,0.013523,0.002678,0.000431,0.000000
833000,0.0324,0.013523,0.002678,0.000431,0.000470
834000,0.0324,0.013523,0.002678,0.000431,0.000235
835000,0.0324,0.013523,0.002678,0.000431,0.000353
836000,0.0324,0.013523,0.002678,0.000431,0.000705
837000,0.0324,0.013523,0.002678,0.000431,0.000588
838000,0.0324,0.013523,0.002678,0.000431,0.000823
839000,0.0324,0.013523,0.002678,0.000431,0.000470
840000,0.0324,0.013523,0.002678,0.000431,0.000823
841000,0.0324,0.013523,0.002678,0.000431,0.000353
842000,0.0324,0.013523,0.002678,0.000431,0.000705
843000,0.0324,0.013523,0.002678,0.000431,0.000823
844000,0.0324,0.013523,0.002678,0.000431,0.000470
845000,0.0324,0.013523,0.002678,0.000431,0.000705
846000,0.0324,0.013523,0.002678,0.000431,0.000705
847000,0.0324,0.013523,0.002678,0.000431,0.000470
848000,0.0324,0.013523,0.002678,0.000431,0.000705
849000,0.0324,0.013523,0.002678,0.000431,0.000470
850000,0.0324,0.013523,0.002678,0.000431,0.000823
851000,0.0324,0.013523,0.002678,0.000431,0.000353
852000,0.0324,0.013523,0.002678,0.000431,0.000823
853000,0.0324,0.013523,0.002678,0.000431,0.000823
854000,0.0324,0.013523,0.002678,0.000431,0.000470
855000,0.0324,0.013523,0.002678,0.000431,0.000823
856000,0.0324,0.013523,0.002678,0.000431,0.000470
857000,0.0324,0.013523,0.002678,0.000431,0.000353
858000,0.0324,0.013523,0.002678,0.000431,0.000705
859000,0.0324,0.013523,0.002678,0.000431,0.000705
860000,0.0324,0.013523,0.002678,0.000431,0.000705
861000,0.0324,0.013523,0.002678,0.000431,0.000470
862000,0.0324,0.013523,0.002678,0.000431,0.000588
863000,0.0324,0.013523,0.002678,0.000431,0.000470
864000,0.0324,0.013523,0.002678,0.000431,0.000588
865000,0.0324,0.013523,0.002678,0.000431,0.000470
866000,0.0324,0.013523,0.002678,0.000431,0.000470
867000,0.0324,0.013523,0.002678,0.000431,0.000353
868000,0.0324,0.013523,0.002678,0.000431,0.000588
869000,0.0324,0.013523,0.002678,0.000431,0.000470
870000,0.0324,0.013523,0.002678,0.000431,0.000588
871000,0.0324,0.013523,0.002678,0.000431,0.000470
872000,0.0324,0.013523,0.002678,0.000431,0.000353
873000,0.0324,0.013523,0.002678,0.000431,0.000470
874000,0.0324,0.013523,0.002678,0.000431,0.000588
875000,0.0324,0.013523,0.002678,0.000431,0.000588
876000,0.0324,0.013523,0.002678,0.000431,0.000588
877000,0.0324,0.013523,0.002678,0.000431,0.000353
878000,0.0324,0.013523,0.002678,0.000431,0.000470
879000,0.0324,0.013523,0.002678,0.000431,0.000588
880000,0.0324,0.013523,0.002678,0.000431,0.000353
881000,0.0324,0.013523,0.002678,0.000431,0.000588
882000,0.0324,0.013523,0.002678,0.000431,0.000470
883000,0.0324,0.013523,0.002678,0.000431,0.000470
884000,0.0324,0.013523,0.002678,0.000431,0.000588
885000,0.0324,0.013523,0.002678,0.000431,0.000353
886000,0.0324,0.013523,0.002678,0.000431,0.000470
887000,0.0324,0.013523,0.002678,0.000431,0.000588
888000,0.0324,0.013523,0.002678,0.000431,0.000353
889000,0.0324,0.013523,0.002678,0.000431,0.000470
890000,0.0324,0.013523,0.002678,0.000431,0.000588
891000,0.0324,0.013523,0.002678,0.000431,0.000588
892000,0.0324,0.013523,0.002678,0.000431,0.000470
893000,0.0324,0.013523,0.002678,0.000431,0.000470
894000,0.0324,0.013523,0.002678,0.000431,0.000470
895000,0.0324,0.013523,0.002678,0.000431,0.000470
896000,0.0324,0.013523,0.002678,0.000431,0.000470
897000,0.0324,0.013523,0.002678,0.000431,0.000705
898000,0.0324,0.013523,0.002678,0.000431,0.000118
899000,0.0324,0.013523,0.002678,0.000431,0.000235
900000,0.0324,0.013523,0.002678,0.000431,0.000705
901000,0.0324,0.013523,0.002678,0.000431,0.000235
902000,0.0324,0.013523,0.002678,0.000431,0.000588
903000,0.0324,0.013523,0.002678,0.000431,0.000588
904000,0.0324,0.013523,0.002678,0.000431,0.000470
905000,0.0324,0.013523,0.002678,0.000431,0.000470
906000,0.0324,0.013523,0.002678,0.000431,0.000470
907000,0.0324,0.013523,0.002678,0.000431,0.000470
908000,0.0324,0.013523,0.002678,0.000431,0.000588
909000,0.0324,0.013523,0.002678,0.000431,0.000588
910000,0.0324,0.013523,0.002678,0.000431,0.000588
911000,0.0324,0.013523,0.002678,0.000431,0.000470
912000,0.0324,0.013523,0.002678,0.000431,0.000353
913000,0.0324,0.013523,0.002678,0.000431,0.000235
914000,0.0324,0.013523,0.002678,0.000431,0.000470
915000,0.0324,0.013523,0.002678,0.000431,0.000588
916000,0.0324,0.013523,0.002678,0.000431,0.000588
917000,0.0324,0.013523,0.002678,0.000431,0.000470
918000,0.0324,0.013523,0.002678,0.000431,0.000353
919000,0.0324,0.013523,0.002678,0.000431,0.000470
920000,0.0324,0.013523,0.002678,0.000431,0.000470
921000,0.0324,0.013523,0.002678,0.000431,0.000588
922000,0.0324,0.013523,0.002678,0.000431,0.000470
923000,0.0324,0.013523,0.002678,0.000431,0.000470
924000,0.0324,0.013523,0.002678,0.000431,0.000588
925000,0.0324,0.013523,0.002678,0.000431,0.000588
926000,0.0324,0.013523,0.002678,0.000431,0.000588
927000,0.0324,0.013523,0.002678,0.000431,0.000588
928000,0.0324,0.013523,0.002678,0.000431,0.000353
929000,0.0324,0.013523,0.002678,0.000431,0.000705
930000,0.0324,0.013523,0.002678,0.000431,0.000588
931000,0.0324,0.013523,0.002678,0.000431,0.000353
932000,0.0324,0.013523,0.002678,0.000431,0.000588
933000,0.0324,0.013523,0.002678,0.000431,0.000470
934000,0.0324,0.013523,0.002678,0.000431,0.000470
935000,0.0324,0.013523,0.002678,0.000431,0.000470
936000,0.0324,0.013523,0.002678,0.000431,0.000470
937000,0.0324,0.013523,0.002678,0.000431,0.000470
938000,0.0324,0.013523,0.002678,0.000431,0.000000
939000,0.0324,0.013523,0.002678,0.000431,0.000705
940000,0.0324,0.013523,0.002678,0.000431,0.000470
941000,0.0324,0.013523,0.002678,0.000431,0.000470
942000,0.0324,0.013523,0.002678,0.000431,0.000470
943000,0.0324,0.013523,0.002678,0.000431,0.000470
944000,0.0324,0.013523,0.002678,0.000431,0.000588
945000,0.0324,0.013523,0.002678,0.000431,0.000470
946000,0.0324,0.013523,0.002678,0.000431,0.000470
947000,0.0324,0.013523,0.002678,0.000431,0.000470
948000,0.0324,0.013523,0.002678,0.000431,0.000353
949000,0.0324,0.013523,0.002678,0.000431,0.000588
950000,0.0324,0.013523,0.002678,0.000431,0.000353
951000,0.0324,0.013523,0.002678,0.000431,0.000470
952000,0.0324,0.013523,0.002678,0.000431,0.000588
953000,0.0324,0.013523,0.002678,0.000431,0.000118
954000,0.0324,0.013523,0.002678,0.000431,0.000588
955000,0.0324,0.013523,0.002678,0.000431,0.000470
956000,0.0324,0.013523,0.002678,0.000431,0.000588
957000,0.0324,0.013523,0.002678,0.000431,0.000588
958000,0.0324,0.013523,0.002678,0.000431,0.000588
959000,0.0324,0.013523,0.002678,0.000431,0.000470
960000,0.0324,0.013523,0.002678,0.000431,0.000470
961000,0.0324,0.013523,0.002678,0.000431,0.000588
962000,0.0324,0.013523,0.002678,0.000431,0.000470
963000,0.0324,0.013523,0.002678,0.000431,0.000588
964000,0.0324,0.013523,0.002678,0.000431,0.000470
965000,0.0324,0.013523,0.002678,0.000431,0.000588
966000,0.0324,0.013523,0.002678,0.000431,0.000470
967000,0.0324,0.013523,0.002678,0.000431,0.000470
968000,0.0324,0.013523,0.002678,0.000431,0.000470
969000,0.0324,0.013523,0.002678,0.000431,0.000588
970000,0.0324,0.013523,0.002678,0.000431,0.000353
971000,0.0324,0.013523,0.002678,0.000431,0.000588
972000,0.0324,0.013523,0.002678,0.000431,0.000353
973000,0.0324,0.013523,0.002678,0.000431,0.000470
974000,0.0324,0.013523,0.002678,0.000431,0.000705
975000,0.0324,0.013523,0.002678,0.000431,0.000470
976000,0.0324,0.013523,0.002678,0.000431,0.000470
977000,0.0324,0.013523,0.002678,0.000431,0.000470
978000,0.0324,0.013523,0.002678,0.000431,0.000353
979000,0.0324,0.013523,0.002678,0.000431,0.000705
980000,0.0324,0.013523,0.002678,0.000431,0.000588
981000,0.0324,0.013523,0.002678,0.000431,0.000588
982000,0.0324,0.013523,0.002678,0.000431,0.000470
983000,0.0324,0.013523,0.002678,0.000431,0.000235
984000,0.0324,0.013523,0.002678,0.000431,0.000588
985000,0.0324,0.013523,0.002678,0.000431,0.000470
986000,0.0324,0.013523,0.002678,0.000431,0.000705
987000,0.0324,0.013523,0.002678,0.000431,0.000470
988000,0.0324,0.013523,0.002678,0.000431,0.000588
989000,0.0324,0.013523,0.002678,0.000431,0.000470
990000,0.0324,0.013523,0.002678,0.000431,0.000470
991000,0.0324,0.013523,0.002678,0.000431,0.000470
992000,0.0324,0.013523,0.002678,0.000431,0.000588
993000,0.0324,0.013523,0.002678,0.000431,0.000470
994000,0.0324,0.013523,0.002678,0.000431,0.000588
995000,0.0324,0.013523,0.002678,0.000431,0.000353
996000,0.0324,0.013523,0.002678,0.000431,0.000588
997000,0.0324,0.013523,0.002678,0.000431,0.000588
998000,0.0324,0.013523,0.002678,0.000431,0.000588
999000,0.0324,0.013523,0.002678,0.000431,0.000470
