Cycle,Area(mm^2),PeakDynamic(W),SubthresholdLeakage(W),GateLeakage(W),RunTimeDynamic(W)
1000000,0.0324,0.013523,0.002678,0.000431,0.000353
1001000,0.0324,0.013523,0.002678,0.000431,0.000588
1002000,0.0324,0.013523,0.002678,0.000431,0.000235
1003000,0.0324,0.013523,0.002678,0.000431,0.000470
1004000,0.0324,0.013523,0.002678,0.000431,0.000470
1005000,0.0324,0.013523,0.002678,0.000431,0.000470
1006000,0.0324,0.013523,0.002678,0.000431,0.000470
1007000,0.0324,0.013523,0.002678,0.000431,0.000235
1008000,0.0324,0.013523,0.002678,0.000431,0.000705
1009000,0.0324,0.013523,0.002678,0.000431,0.000470
1010000,0.0324,0.013523,0.002678,0.000431,0.000353
1011000,0.0324,0.013523,0.002678,0.000431,0.000588
1012000,0.0324,0.013523,0.002678,0.000431,0.000470
1013000,0.0324,0.013523,0.002678,0.000431,0.000470
1014000,0.0324,0.013523,0.002678,0.000431,0.000470
1015000,0.0324,0.013523,0.002678,0.000431,0.000470
1016000,0.0324,0.013523,0.002678,0.000431,0.000705
1017000,0.0324,0.013523,0.002678,0.000431,0.000470
1018000,0.0324,0.013523,0.002678,0.000431,0.000353
1019000,0.0324,0.013523,0.002678,0.000431,0.000588
1020000,0.0324,0.013523,0.002678,0.000431,0.000470
1021000,0.0324,0.013523,0.002678,0.000431,0.000470
1022000,0.0324,0.013523,0.002678,0.000431,0.000588
1023000,0.0324,0.013523,0.002678,0.000431,0.000588
1024000,0.0324,0.013523,0.002678,0.000431,0.000588
1025000,0.0324,0.013523,0.002678,0.000431,0.000588
1026000,0.0324,0.013523,0.002678,0.000431,0.000470
1027000,0.0324,0.013523,0.002678,0.000431,0.000353
1028000,0.0324,0.013523,0.002678,0.000431,0.000470
1029000,0.0324,0.013523,0.002678,0.000431,0.000705
1030000,0.0324,0.013523,0.002678,0.000431,0.000588
1031000,0.0324,0.013523,0.002678,0.000431,0.000470
1032000,0.0324,0.013523,0.002678,0.000431,0.000470
1033000,0.0324,0.013523,0.002678,0.000431,0.000705
1034000,0.0324,0.013523,0.002678,0.000431,0.000470
1035000,0.0324,0.013523,0.002678,0.000431,0.000353
1036000,0.0324,0.013523,0.002678,0.000431,0.000353
1037000,0.0324,0.013523,0.002678,0.000431,0.000470
1038000,0.0324,0.013523,0.002678,0.000431,0.000705
1039000,0.0324,0.013523,0.002678,0.000431,0.000353
1040000,0.0324,0.013523,0.002678,0.000431,0.000470
1041000,0.0324,0.013523,0.002678,0.000431,0.000470
1042000,0.0324,0.013523,0.002678,0.000431,0.000470
1043000,0.0324,0.013523,0.002678,0.000431,0.000588
1044000,0.0324,0.013523,0.002678,0.000431,0.000235
1045000,0.0324,0.013523,0.002678,0.000431,0.000588
1046000,0.0324,0.013523,0.002678,0.000431,0.000470
1047000,0.0324,0.013523,0.002678,0.000431,0.000588
1048000,0.0324,0.013523,0.002678,0.000431,0.000588
1049000,0.0324,0.013523,0.002678,0.000431,0.000470
1050000,0.0324,0.013523,0.002678,0.000431,0.000588
1051000,0.0324,0.013523,0.002678,0.000431,0.000588
1052000,0.0324,0.013523,0.002678,0.000431,0.000588
1053000,0.0324,0.013523,0.002678,0.000431,0.000588
1054000,0.0324,0.013523,0.002678,0.000431,0.000705
1055000,0.0324,0.013523,0.002678,0.000431,0.000588
1056000,0.0324,0.013523,0.002678,0.000431,0.000470
1057000,0.0324,0.013523,0.002678,0.000431,0.000588
1058000,0.0324,0.013523,0.002678,0.000431,0.000470
1059000,0.0324,0.013523,0.002678,0.000431,0.000588
1060000,0.0324,0.013523,0.002678,0.000431,0.000588
1061000,0.0324,0.013523,0.002678,0.000431,0.000588
1062000,0.0324,0.013523,0.002678,0.000431,0.000470
1063000,0.0324,0.013523,0.002678,0.000431,0.000470
1064000,0.0324,0.013523,0.002678,0.000431,0.000470
1065000,0.0324,0.013523,0.002678,0.000431,0.000118
1066000,0.0324,0.013523,0.002678,0.000431,0.000705
1067000,0.0324,0.013523,0.002678,0.000431,0.000470
1068000,0.0324,0.013523,0.002678,0.000431,0.000588
1069000,0.0324,0.013523,0.002678,0.000431,0.000588
1070000,0.0324,0.013523,0.002678,0.000431,0.000705
1071000,0.0324,0.013523,0.002678,0.000431,0.000470
1072000,0.0324,0.013523,0.002678,0.000431,0.000353
1073000,0.0324,0.013523,0.002678,0.000431,0.000353
1074000,0.0324,0.013523,0.002678,0.000431,0.000705
1075000,0.0324,0.013523,0.002678,0.000431,0.000588
1076000,0.0324,0.013523,0.002678,0.000431,0.000470
1077000,0.0324,0.013523,0.002678,0.000431,0.000470
1078000,0.0324,0.013523,0.002678,0.000431,0.000588
1079000,0.0324,0.013523,0.002678,0.000431,0.000588
1080000,0.0324,0.013523,0.002678,0.000431,0.000705
1081000,0.0324,0.013523,0.002678,0.000431,0.000353
1082000,0.0324,0.013523,0.002678,0.000431,0.000470
1083000,0.0324,0.013523,0.002678,0.000431,0.000588
1084000,0.0324,0.013523,0.002678,0.000431,0.000470
1085000,0.0324,0.013523,0.002678,0.000431,0.000588
1086000,0.0324,0.013523,0.002678,0.000431,0.000353
1087000,0.0324,0.013523,0.002678,0.000431,0.000353
1088000,0.0324,0.013523,0.002678,0.000431,0.000353
1089000,0.0324,0.013523,0.002678,0.000431,0.000470
1090000,0.0324,0.013523,0.002678,0.000431,0.000705
1091000,0.0324,0.013523,0.002678,0.000431,0.000353
1092000,0.0324,0.013523,0.002678,0.000431,0.000470
1093000,0.0324,0.013523,0.002678,0.000431,0.000470
1094000,0.0324,0.013523,0.002678,0.000431,0.000353
1095000,0.0324,0.013523,0.002678,0.000431,0.000470
1096000,0.0324,0.013523,0.002678,0.000431,0.000353
1097000,0.0324,0.013523,0.002678,0.000431,0.000470
1098000,0.0324,0.013523,0.002678,0.000431,0.000588
1099000,0.0324,0.013523,0.002678,0.000431,0.000588
1100000,0.0324,0.013523,0.002678,0.000431,0.000705
1101000,0.0324,0.013523,0.002678,0.000431,0.000470
1102000,0.0324,0.013523,0.002678,0.000431,0.000353
1103000,0.0324,0.013523,0.002678,0.000431,0.000470
1104000,0.0324,0.013523,0.002678,0.000431,0.000235
1105000,0.0324,0.013523,0.002678,0.000431,0.000470
1106000,0.0324,0.013523,0.002678,0.000431,0.000588
1107000,0.0324,0.013523,0.002678,0.000431,0.000470
1108000,0.0324,0.013523,0.002678,0.000431,0.000470
1109000,0.0324,0.013523,0.002678,0.000431,0.000353
1110000,0.0324,0.013523,0.002678,0.000431,0.000588
1111000,0.0324,0.013523,0.002678,0.000431,0.000470
1112000,0.0324,0.013523,0.002678,0.000431,0.000588
1113000,0.0324,0.013523,0.002678,0.000431,0.000470
1114000,0.0324,0.013523,0.002678,0.000431,0.000470
1115000,0.0324,0.013523,0.002678,0.000431,0.000353
1116000,0.0324,0.013523,0.002678,0.000431,0.000470
1117000,0.0324,0.013523,0.002678,0.000431,0.000588
1118000,0.0324,0.013523,0.002678,0.000431,0.000353
1119000,0.0324,0.013523,0.002678,0.000431,0.000588
1120000,0.0324,0.013523,0.002678,0.000431,0.000588
1121000,0.0324,0.013523,0.002678,0.000431,0.000588
1122000,0.0324,0.013523,0.002678,0.000431,0.000588
1123000,0.0324,0.013523,0.002678,0.000431,0.000353
1124000,0.0324,0.013523,0.002678,0.000431,0.000705
1125000,0.0324,0.013523,0.002678,0.000431,0.000235
1126000,0.0324,0.013523,0.002678,0.000431,0.000353
1127000,0.0324,0.013523,0.002678,0.000431,0.000588
1128000,0.0324,0.013523,0.002678,0.000431,0.000470
1129000,0.0324,0.013523,0.002678,0.000431,0.000588
1130000,0.0324,0.013523,0.002678,0.000431,0.000588
1131000,0.0324,0.013523,0.002678,0.000431,0.000235
1132000,0.0324,0.013523,0.002678,0.000431,0.000235
1133000,0.0324,0.013523,0.002678,0.000431,0.000588
1134000,0.0324,0.013523,0.002678,0.000431,0.000470
1135000,0.0324,0.013523,0.002678,0.000431,0.000353
1136000,0.0324,0.013523,0.002678,0.000431,0.000353
1137000,0.0324,0.013523,0.002678,0.000431,0.000588
1138000,0.0324,0.013523,0.002678,0.000431,0.000588
1139000,0.0324,0.013523,0.002678,0.000431,0.000470
1140000,0.0324,0.013523,0.002678,0.000431,0.000588
1141000,0.0324,0.013523,0.002678,0.000431,0.000470
1142000,0.0324,0.013523,0.002678,0.000431,0.000588
1143000,0.0324,0.013523,0.002678,0.000431,0.000588
1144000,0.0324,0.013523,0.002678,0.000431,0.000470
1145000,0.0324,0.013523,0.002678,0.000431,0.000705
1146000,0.0324,0.013523,0.002678,0.000431,0.000470
1147000,0.0324,0.013523,0.002678,0.000431,0.000353
1148000,0.0324,0.013523,0.002678,0.000431,0.000470
1149000,0.0324,0.013523,0.002678,0.000431,0.000588
1150000,0.0324,0.013523,0.002678,0.000431,0.000588
1151000,0.0324,0.013523,0.002678,0.000431,0.000470
1152000,0.0324,0.013523,0.002678,0.000431,0.000353
1153000,0.0324,0.013523,0.002678,0.000431,0.000588
1154000,0.0324,0.013523,0.002678,0.000431,0.000470
1155000,0.0324,0.013523,0.002678,0.000431,0.000470
1156000,0.0324,0.013523,0.002678,0.000431,0.000588
1157000,0.0324,0.013523,0.002678,0.000431,0.000470
1158000,0.0324,0.013523,0.002678,0.000431,0.000470
1159000,0.0324,0.013523,0.002678,0.000431,0.000470
1160000,0.0324,0.013523,0.002678,0.000431,0.000470
1161000,0.0324,0.013523,0.002678,0.000431,0.000470
1162000,0.0324,0.013523,0.002678,0.000431,0.000470
1163000,0.0324,0.013523,0.002678,0.000431,0.000588
1164000,0.0324,0.013523,0.002678,0.000431,0.000470
1165000,0.0324,0.013523,0.002678,0.000431,0.000588
1166000,0.0324,0.013523,0.002678,0.000431,0.000353
1167000,0.0324,0.013523,0.002678,0.000431,0.000588
1168000,0.0324,0.013523,0.002678,0.000431,0.000470
1169000,0.0324,0.013523,0.002678,0.000431,0.000588
1170000,0.0324,0.013523,0.002678,0.000431,0.000588
1171000,0.0324,0.013523,0.002678,0.000431,0.000470
1172000,0.0324,0.013523,0.002678,0.000431,0.000705
1173000,0.0324,0.013523,0.002678,0.000431,0.000470
1174000,0.0324,0.013523,0.002678,0.000431,0.000705
1175000,0.0324,0.013523,0.002678,0.000431,0.000470
1176000,0.0324,0.013523,0.002678,0.000431,0.000588
1177000,0.0324,0.013523,0.002678,0.000431,0.000470
1178000,0.0324,0.013523,0.002678,0.000431,0.000588
1179000,0.0324,0.013523,0.002678,0.000431,0.000470
1180000,0.0324,0.013523,0.002678,0.000431,0.000588
1181000,0.0324,0.013523,0.002678,0.000431,0.000588
1182000,0.0324,0.013523,0.002678,0.000431,0.000235
1183000,0.0324,0.013523,0.002678,0.000431,0.000588
1184000,0.0324,0.013523,0.002678,0.000431,0.000588
1185000,0.0324,0.013523,0.002678,0.000431,0.000470
1186000,0.0324,0.013523,0.002678,0.000431,0.000353
1187000,0.0324,0.013523,0.002678,0.000431,0.000588
1188000,0.0324,0.013523,0.002678,0.000431,0.000353
1189000,0.0324,0.013523,0.002678,0.000431,0.000588
1190000,0.0324,0.013523,0.002678,0.000431,0.000353
1191000,0.0324,0.013523,0.002678,0.000431,0.000588
1192000,0.0324,0.013523,0.002678,0.000431,0.000588
1193000,0.0324,0.013523,0.002678,0.000431,0.000470
1194000,0.0324,0.013523,0.002678,0.000431,0.000470
1195000,0.0324,0.013523,0.002678,0.000431,0.000588
1196000,0.0324,0.013523,0.002678,0.000431,0.000470
1197000,0.0324,0.013523,0.002678,0.000431,0.000705
1198000,0.0324,0.013523,0.002678,0.000431,0.000470
1199000,0.0324,0.013523,0.002678,0.000431,0.000353
1200000,0.0324,0.013523,0.002678,0.000431,0.000588
1201000,0.0324,0.013523,0.002678,0.000431,0.000470
1202000,0.0324,0.013523,0.002678,0.000431,0.000470
1203000,0.0324,0.013523,0.002678,0.000431,0.000705
1204000,0.0324,0.013523,0.002678,0.000431,0.000470
1205000,0.0324,0.013523,0.002678,0.000431,0.000235
1206000,0.0324,0.013523,0.002678,0.000431,0.000118
1207000,0.0324,0.013523,0.002678,0.000431,0.000118
1208000,0.0324,0.013523,0.002678,0.000431,0.000235
1209000,0.0324,0.013523,0.002678,0.000431,0.000000
1210000,0.0324,0.013523,0.002678,0.000431,0.000235
1211000,0.0324,0.013523,0.002678,0.000431,0.000000
1212000,0.0324,0.013523,0.002678,0.000431,0.000235
1213000,0.0324,0.013523,0.002678,0.000431,0.000118
1214000,0.0324,0.013523,0.002678,0.000431,0.000353
1215000,0.0324,0.013523,0.002678,0.000431,0.000588
1216000,0.0324,0.013523,0.002678,0.000431,0.000588
1217000,0.0324,0.013523,0.002678,0.000431,0.000235
1218000,0.0324,0.013523,0.002678,0.000431,0.000588
1219000,0.0324,0.013523,0.002678,0.000431,0.000353
1220000,0.0324,0.013523,0.002678,0.000431,0.000470
1221000,0.0324,0.013523,0.002678,0.000431,0.000470
1222000,0.0324,0.013523,0.002678,0.000431,0.000705
1223000,0.0324,0.013523,0.002678,0.000431,0.000353
1224000,0.0324,0.013523,0.002678,0.000431,0.000588
1225000,0.0324,0.013523,0.002678,0.000431,0.000353
1226000,0.0324,0.013523,0.002678,0.000431,0.000470
1227000,0.0324,0.013523,0.002678,0.000431,0.000588
1228000,0.0324,0.013523,0.002678,0.000431,0.000470
1229000,0.0324,0.013523,0.002678,0.000431,0.000235
1230000,0.0324,0.013523,0.002678,0.000431,0.000118
1231000,0.0324,0.013523,0.002678,0.000431,0.000588
1232000,0.0324,0.013523,0.002678,0.000431,0.000353
1233000,0.0324,0.013523,0.002678,0.000431,0.000470
1234000,0.0324,0.013523,0.002678,0.000431,0.000588
1235000,0.0324,0.013523,0.002678,0.000431,0.000353
1236000,0.0324,0.013523,0.002678,0.000431,0.000588
1237000,0.0324,0.013523,0.002678,0.000431,0.000470
1238000,0.0324,0.013523,0.002678,0.000431,0.000470
1239000,0.0324,0.013523,0.002678,0.000431,0.000470
1240000,0.0324,0.013523,0.002678,0.000431,0.000353
1241000,0.0324,0.013523,0.002678,0.000431,0.000588
1242000,0.0324,0.013523,0.002678,0.000431,0.000588
1243000,0.0324,0.013523,0.002678,0.000431,0.000470
1244000,0.0324,0.013523,0.002678,0.000431,0.000588
1245000,0.0324,0.013523,0.002678,0.000431,0.000470
1246000,0.0324,0.013523,0.002678,0.000431,0.000588
1247000,0.0324,0.013523,0.002678,0.000431,0.000705
1248000,0.0324,0.013523,0.002678,0.000431,0.000235
1249000,0.0324,0.013523,0.002678,0.000431,0.000470
1250000,0.0324,0.013523,0.002678,0.000431,0.000353
1251000,0.0324,0.013523,0.002678,0.000431,0.000000
1252000,0.0324,0.013523,0.002678,0.000431,0.000000
1253000,0.0324,0.013523,0.002678,0.000431,0.000000
1254000,0.0324,0.013523,0.002678,0.000431,0.000000
1255000,0.0324,0.013523,0.002678,0.000431,0.541452
1256000,0.0324,0.013523,0.002678,0.000431,2.850881
1257000,0.0324,0.013523,0.002678,0.000431,0.626425
1258000,0.0324,0.013523,0.002678,0.000431,0.000000
1259000,0.0324,0.013523,0.002678,0.000431,0.000000
1260000,0.0324,0.013523,0.002678,0.000431,0.000000
1261000,0.0324,0.013523,0.002678,0.000431,0.000000
1262000,0.0324,0.013523,0.002678,0.000431,0.476812
1263000,0.0324,0.013523,0.002678,0.000431,2.667420
1264000,0.0324,0.013523,0.002678,0.000431,1.626473
1265000,0.0324,0.013523,0.002678,0.000431,1.474038
1266000,0.0324,0.013523,0.002678,0.000431,2.041582
1267000,0.0324,0.013523,0.002678,0.000431,2.404509
1268000,0.0324,0.013523,0.002678,0.000431,3.793457
1269000,0.0324,0.013523,0.002678,0.000431,4.075995
1270000,0.0324,0.013523,0.002678,0.000431,4.189997
1271000,0.0324,0.013523,0.002678,0.000431,4.065065
1272000,0.0324,0.013523,0.002678,0.000431,4.063654
1273000,0.0324,0.013523,0.002678,0.000431,3.999837
1274000,0.0324,0.013523,0.002678,0.000431,4.042499
1275000,0.0324,0.013523,0.002678,0.000431,4.060481
1276000,0.0324,0.013523,0.002678,0.000431,4.049434
1277000,0.0324,0.013523,0.002678,0.000431,4.063419
1278000,0.0324,0.013523,0.002678,0.000431,4.022755
1279000,0.0324,0.013523,0.002678,0.000431,4.062479
1280000,0.0324,0.013523,0.002678,0.000431,4.062597
1281000,0.0324,0.013523,0.002678,0.000431,4.069296
1282000,0.0324,0.013523,0.002678,0.000431,4.035565
1283000,0.0324,0.013523,0.002678,0.000431,4.081049
1284000,0.0324,0.013523,0.002678,0.000431,4.045438
1285000,0.0324,0.013523,0.002678,0.000431,4.050726
1286000,0.0324,0.013523,0.002678,0.000431,4.066005
1287000,0.0324,0.013523,0.002678,0.000431,4.016408
1288000,0.0324,0.013523,0.002678,0.000431,4.067650
1289000,0.0324,0.013523,0.002678,0.000431,4.028278
1290000,0.0324,0.013523,0.002678,0.000431,4.082459
1291000,0.0324,0.013523,0.002678,0.000431,4.056838
1292000,0.0324,0.013523,0.002678,0.000431,4.061421
1293000,0.0324,0.013523,0.002678,0.000431,4.046730
1294000,0.0324,0.013523,0.002678,0.000431,4.076230
1295000,0.0324,0.013523,0.002678,0.000431,4.074702
1296000,0.0324,0.013523,0.002678,0.000431,4.084927
1297000,0.0324,0.013523,0.002678,0.000431,4.042617
1298000,0.0324,0.013523,0.002678,0.000431,4.072352
1299000,0.0324,0.013523,0.002678,0.000431,4.053900
1300000,0.0324,0.013523,0.002678,0.000431,4.028631
1301000,0.0324,0.013523,0.002678,0.000431,4.068826
1302000,0.0324,0.013523,0.002678,0.000431,4.010884
1303000,0.0324,0.013523,0.002678,0.000431,4.099736
1304000,0.0324,0.013523,0.002678,0.000431,4.017466
1305000,0.0324,0.013523,0.002678,0.000431,4.062832
1306000,0.0324,0.013523,0.002678,0.000431,4.043557
1307000,0.0324,0.013523,0.002678,0.000431,4.057073
1308000,0.0324,0.013523,0.002678,0.000431,4.083517
1309000,0.0324,0.013523,0.002678,0.000431,4.050726
1310000,0.0324,0.013523,0.002678,0.000431,4.043792
1311000,0.0324,0.013523,0.002678,0.000431,4.063537
1312000,0.0324,0.013523,0.002678,0.000431,4.024635
1313000,0.0324,0.013523,0.002678,0.000431,4.062127
1314000,0.0324,0.013523,0.002678,0.000431,4.028514
1315000,0.0324,0.013523,0.002678,0.000431,4.066828
1316000,0.0324,0.013523,0.002678,0.000431,4.045555
1317000,0.0324,0.013523,0.002678,0.000431,4.053547
1318000,0.0324,0.013523,0.002678,0.000431,4.077640
1319000,0.0324,0.013523,0.002678,0.000431,4.049081
1320000,0.0324,0.013523,0.002678,0.000431,4.079168
1321000,0.0324,0.013523,0.002678,0.000431,4.026986
1322000,0.0324,0.013523,0.002678,0.000431,4.025575
1323000,0.0324,0.013523,0.002678,0.000431,4.052254
1324000,0.0324,0.013523,0.002678,0.000431,4.065887
1325000,0.0324,0.013523,0.002678,0.000431,4.044380
1326000,0.0324,0.013523,0.002678,0.000431,4.038621
1327000,0.0324,0.013523,0.002678,0.000431,4.060364
1328000,0.0324,0.013523,0.002678,0.000431,4.080696
1329000,0.0324,0.013523,0.002678,0.000431,4.046378
1330000,0.0324,0.013523,0.002678,0.000431,4.042852
1331000,0.0324,0.013523,0.002678,0.000431,4.053077
1332000,0.0324,0.013523,0.002678,0.000431,4.072352
1333000,0.0324,0.013523,0.002678,0.000431,4.088923
1334000,0.0324,0.013523,0.002678,0.000431,4.057073
1335000,0.0324,0.013523,0.002678,0.000431,4.066945
1336000,0.0324,0.013523,0.002678,0.000431,4.103496
1337000,0.0324,0.013523,0.002678,0.000431,4.105024
1338000,0.0324,0.013523,0.002678,0.000431,4.073409
1339000,0.0324,0.013523,0.002678,0.000431,4.082812
1340000,0.0324,0.013523,0.002678,0.000431,4.091391
1341000,0.0324,0.013523,0.002678,0.000431,4.061186
1342000,0.0324,0.013523,0.002678,0.000431,4.060129
1343000,0.0324,0.013523,0.002678,0.000431,4.062832
1344000,0.0324,0.013523,0.002678,0.000431,4.066945
1345000,0.0324,0.013523,0.002678,0.000431,4.083869
1346000,0.0324,0.013523,0.002678,0.000431,4.121361
1347000,0.0324,0.013523,0.002678,0.000431,4.051784
1348000,0.0324,0.013523,0.002678,0.000431,4.044497
1349000,0.0324,0.013523,0.002678,0.000431,4.041324
1350000,0.0324,0.013523,0.002678,0.000431,4.101499
1351000,0.0324,0.013523,0.002678,0.000431,4.053312
1352000,0.0324,0.013523,0.002678,0.000431,4.069766
1353000,0.0324,0.013523,0.002678,0.000431,4.044380
1354000,0.0324,0.013523,0.002678,0.000431,4.040501
1355000,0.0324,0.013523,0.002678,0.000431,4.054252
1356000,0.0324,0.013523,0.002678,0.000431,4.084222
1357000,0.0324,0.013523,0.002678,0.000431,4.005948
1358000,0.0324,0.013523,0.002678,0.000431,4.059188
1359000,0.0324,0.013523,0.002678,0.000431,4.069531
1360000,0.0324,0.013523,0.002678,0.000431,4.058483
1361000,0.0324,0.013523,0.002678,0.000431,4.076230
1362000,0.0324,0.013523,0.002678,0.000431,4.034860
1363000,0.0324,0.013523,0.002678,0.000431,4.035448
1364000,0.0324,0.013523,0.002678,0.000431,4.075760
1365000,0.0324,0.013523,0.002678,0.000431,4.063184
1366000,0.0324,0.013523,0.002678,0.000431,4.050021
1367000,0.0324,0.013523,0.002678,0.000431,3.996428
1368000,0.0324,0.013523,0.002678,0.000431,3.997133
1369000,0.0324,0.013523,0.002678,0.000431,3.974333
1370000,0.0324,0.013523,0.002678,0.000431,3.966341
1371000,0.0324,0.013523,0.002678,0.000431,3.819783
1372000,0.0324,0.013523,0.002678,0.000431,3.790989
1373000,0.0324,0.013523,0.002678,0.000431,3.703548
1374000,0.0324,0.013523,0.002678,0.000431,3.582964
1375000,0.0324,0.013523,0.002678,0.000431,3.481302
1376000,0.0324,0.013523,0.002678,0.000431,3.308418
1377000,0.0324,0.013523,0.002678,0.000431,3.190773
1378000,0.0324,0.013523,0.002678,0.000431,3.055380
1379000,0.0324,0.013523,0.002678,0.000431,2.900713
1380000,0.0324,0.013523,0.002678,0.000431,2.817621
1381000,0.0324,0.013523,0.002678,0.000431,2.727947
1382000,0.0324,0.013523,0.002678,0.000431,2.573397
1383000,0.0324,0.013523,0.002678,0.000431,2.467739
1384000,0.0324,0.013523,0.002678,0.000431,2.332229
1385000,0.0324,0.013523,0.002678,0.000431,2.245729
1386000,0.0324,0.013523,0.002678,0.000431,2.211528
1387000,0.0324,0.013523,0.002678,0.000431,2.067438
1388000,0.0324,0.013523,0.002678,0.000431,2.084010
1389000,0.0324,0.013523,0.002678,0.000431,1.971535
1390000,0.0324,0.013523,0.002678,0.000431,1.930871
1391000,0.0324,0.013523,0.002678,0.000431,1.850011
1392000,0.0324,0.013523,0.002678,0.000431,1.786193
1393000,0.0324,0.013523,0.002678,0.000431,1.763158
1394000,0.0324,0.013523,0.002678,0.000431,1.704394
1395000,0.0324,0.013523,0.002678,0.000431,1.631644
1396000,0.0324,0.013523,0.002678,0.000431,1.574643
1397000,0.0324,0.013523,0.002678,0.000431,1.540324
1398000,0.0324,0.013523,0.002678,0.000431,1.482618
1399000,0.0324,0.013523,0.002678,0.000431,1.428202
1400000,0.0324,0.013523,0.002678,0.000431,1.401171
1401000,0.0324,0.013523,0.002678,0.000431,1.357803
1402000,0.0324,0.013523,0.002678,0.000431,1.306326
1403000,0.0324,0.013523,0.002678,0.000431,1.259902
1404000,0.0324,0.013523,0.002678,0.000431,1.222763
1405000,0.0324,0.013523,0.002678,0.000431,1.173049
1406000,0.0324,0.013523,0.002678,0.000431,1.128506
1407000,0.0324,0.013523,0.002678,0.000431,1.084785
1408000,0.0324,0.013523,0.002678,0.000431,1.053288
1409000,0.0324,0.013523,0.002678,0.000431,1.003808
1410000,0.0324,0.013523,0.002678,0.000431,0.980655
1411000,0.0324,0.013523,0.002678,0.000431,0.936112
1412000,0.0324,0.013523,0.002678,0.000431,0.903792
1413000,0.0324,0.013523,0.002678,0.000431,0.868768
1414000,0.0324,0.013523,0.002678,0.000431,0.828809
1415000,0.0324,0.013523,0.002678,0.000431,0.818114
1416000,0.0324,0.013523,0.002678,0.000431,0.791670
1417000,0.0324,0.013523,0.002678,0.000431,0.747597
1418000,0.0324,0.013523,0.002678,0.000431,0.739722
1419000,0.0324,0.013523,0.002678,0.000431,0.698470
1420000,0.0324,0.013523,0.002678,0.000431,0.676845
1421000,0.0324,0.013523,0.002678,0.000431,0.644525
1422000,0.0324,0.013523,0.002678,0.000431,0.628071
1423000,0.0324,0.013523,0.002678,0.000431,0.601979
1424000,0.0324,0.013523,0.002678,0.000431,0.583410
1425000,0.0324,0.013523,0.002678,0.000431,0.560022
1426000,0.0324,0.013523,0.002678,0.000431,0.530875
1427000,0.0324,0.013523,0.002678,0.000431,0.508662
1428000,0.0324,0.013523,0.002678,0.000431,0.492796
1429000,0.0324,0.013523,0.002678,0.000431,0.475284
1430000,0.0324,0.013523,0.002678,0.000431,0.460358
1431000,0.0324,0.013523,0.002678,0.000431,0.439203
1432000,0.0324,0.013523,0.002678,0.000431,0.413347
1433000,0.0324,0.013523,0.002678,0.000431,0.406530
1434000,0.0324,0.013523,0.002678,0.000431,0.390546
1435000,0.0324,0.013523,0.002678,0.000431,0.375032
1436000,0.0324,0.013523,0.002678,0.000431,0.352937
1437000,0.0324,0.013523,0.002678,0.000431,0.351527
1438000,0.0324,0.013523,0.002678,0.000431,0.330254
1439000,0.0324,0.013523,0.002678,0.000431,0.321557
1440000,0.0324,0.013523,0.002678,0.000431,0.317796
1441000,0.0324,0.013523,0.002678,0.000431,0.303105
1442000,0.0324,0.013523,0.002678,0.000431,0.287709
1443000,0.0324,0.013523,0.002678,0.000431,0.282420
1444000,0.0324,0.013523,0.002678,0.000431,0.273488
1445000,0.0324,0.013523,0.002678,0.000431,0.257974
1446000,0.0324,0.013523,0.002678,0.000431,0.246574
1447000,0.0324,0.013523,0.002678,0.000431,0.242108
1448000,0.0324,0.013523,0.002678,0.000431,0.224126
1449000,0.0324,0.013523,0.002678,0.000431,0.222128
1450000,0.0324,0.013523,0.002678,0.000431,0.215312
1451000,0.0324,0.013523,0.002678,0.000431,0.204264
1452000,0.0324,0.013523,0.002678,0.000431,0.194862
1453000,0.0324,0.013523,0.002678,0.000431,0.186400
1454000,0.0324,0.013523,0.002678,0.000431,0.182874
1455000,0.0324,0.013523,0.002678,0.000431,0.181581
1456000,0.0324,0.013523,0.002678,0.000431,0.166185
1457000,0.0324,0.013523,0.002678,0.000431,0.163247
1458000,0.0324,0.013523,0.002678,0.000431,0.155842
1459000,0.0324,0.013523,0.002678,0.000431,0.158781
1460000,0.0324,0.013523,0.002678,0.000431,0.142562
1461000,0.0324,0.013523,0.002678,0.000431,0.136568
1462000,0.0324,0.013523,0.002678,0.000431,0.133159
1463000,0.0324,0.013523,0.002678,0.000431,0.128928
1464000,0.0324,0.013523,0.002678,0.000431,0.121524
1465000,0.0324,0.013523,0.002678,0.000431,0.115413
1466000,0.0324,0.013523,0.002678,0.000431,0.115648
1467000,0.0324,0.013523,0.002678,0.000431,0.116118
1468000,0.0324,0.013523,0.002678,0.000431,0.107421
1469000,0.0324,0.013523,0.002678,0.000431,0.103190
1470000,0.0324,0.013523,0.002678,0.000431,0.100369
1471000,0.0324,0.013523,0.002678,0.000431,0.100252
1472000,0.0324,0.013523,0.002678,0.000431,0.093787
1473000,0.0324,0.013523,0.002678,0.000431,0.094728
1474000,0.0324,0.013523,0.002678,0.000431,0.087206
1475000,0.0324,0.013523,0.002678,0.000431,0.088734
1476000,0.0324,0.013523,0.002678,0.000431,0.080507
1477000,0.0324,0.013523,0.002678,0.000431,0.076158
1478000,0.0324,0.013523,0.002678,0.000431,0.082270
1479000,0.0324,0.013523,0.002678,0.000431,0.073220
1480000,0.0324,0.013523,0.002678,0.000431,0.073690
1481000,0.0324,0.013523,0.002678,0.000431,0.070517
1482000,0.0324,0.013523,0.002678,0.000431,0.069459
1483000,0.0324,0.013523,0.002678,0.000431,0.065111
1484000,0.0324,0.013523,0.002678,0.000431,0.060645
1485000,0.0324,0.013523,0.002678,0.000431,0.060409
1486000,0.0324,0.013523,0.002678,0.000431,0.056884
1487000,0.0324,0.013523,0.002678,0.000431,0.058529
1488000,0.0324,0.013523,0.002678,0.000431,0.054063
1489000,0.0324,0.013523,0.002678,0.000431,0.053240
1490000,0.0324,0.013523,0.002678,0.000431,0.049949
1491000,0.0324,0.013523,0.002678,0.000431,0.049127
1492000,0.0324,0.013523,0.002678,0.000431,0.048187
1493000,0.0324,0.013523,0.002678,0.000431,0.049949
1494000,0.0324,0.013523,0.002678,0.000431,0.047599
1495000,0.0324,0.013523,0.002678,0.000431,0.045483
1496000,0.0324,0.013523,0.002678,0.000431,0.046071
1497000,0.0324,0.013523,0.002678,0.000431,0.040430
1498000,0.0324,0.013523,0.002678,0.000431,0.041605
1499000,0.0324,0.013523,0.002678,0.000431,0.038667
1500000,0.0324,0.013523,0.002678,0.000431,0.037256
1501000,0.0324,0.013523,0.002678,0.000431,0.039019
1502000,0.0324,0.013523,0.002678,0.000431,0.034436
1503000,0.0324,0.013523,0.002678,0.000431,0.033731
1504000,0.0324,0.013523,0.002678,0.000431,0.033613
1505000,0.0324,0.013523,0.002678,0.000431,0.031027
1506000,0.0324,0.013523,0.002678,0.000431,0.033613
1507000,0.0324,0.013523,0.002678,0.000431,0.031498
1508000,0.0324,0.013523,0.002678,0.000431,0.030910
1509000,0.0324,0.013523,0.002678,0.000431,0.029029
1510000,0.0324,0.013523,0.002678,0.000431,0.029382
1511000,0.0324,0.013523,0.002678,0.000431,0.029265
1512000,0.0324,0.013523,0.002678,0.000431,0.028089
1513000,0.0324,0.013523,0.002678,0.000431,0.028207
1514000,0.0324,0.013523,0.002678,0.000431,0.025269
1515000,0.0324,0.013523,0.002678,0.000431,0.024446
1516000,0.0324,0.013523,0.002678,0.000431,0.023623
1517000,0.0324,0.013523,0.002678,0.000431,0.023153
1518000,0.0324,0.013523,0.002678,0.000431,0.024681
1519000,0.0324,0.013523,0.002678,0.000431,0.020332
1520000,0.0324,0.013523,0.002678,0.000431,0.024798
1521000,0.0324,0.013523,0.002678,0.000431,0.024798
1522000,0.0324,0.013523,0.002678,0.000431,0.022448
1523000,0.0324,0.013523,0.002678,0.000431,0.021273
1524000,0.0324,0.013523,0.002678,0.000431,0.019980
1525000,0.0324,0.013523,0.002678,0.000431,0.020920
1526000,0.0324,0.013523,0.002678,0.000431,0.019157
1527000,0.0324,0.013523,0.002678,0.000431,0.021273
1528000,0.0324,0.013523,0.002678,0.000431,0.020450
1529000,0.0324,0.013523,0.002678,0.000431,0.018334
1530000,0.0324,0.013523,0.002678,0.000431,0.017277
1531000,0.0324,0.013523,0.002678,0.000431,0.020567
1532000,0.0324,0.013523,0.002678,0.000431,0.017159
1533000,0.0324,0.013523,0.002678,0.000431,0.019510
1534000,0.0324,0.013523,0.002678,0.000431,0.017629
1535000,0.0324,0.013523,0.002678,0.000431,0.014926
1536000,0.0324,0.013523,0.002678,0.000431,0.017042
1537000,0.0324,0.013523,0.002678,0.000431,0.017864
1538000,0.0324,0.013523,0.002678,0.000431,0.017159
1539000,0.0324,0.013523,0.002678,0.000431,0.015044
1540000,0.0324,0.013523,0.002678,0.000431,0.014926
1541000,0.0324,0.013523,0.002678,0.000431,0.014103
1542000,0.0324,0.013523,0.002678,0.000431,0.014691
1543000,0.0324,0.013523,0.002678,0.000431,0.012928
1544000,0.0324,0.013523,0.002678,0.000431,0.012576
1545000,0.0324,0.013523,0.002678,0.000431,0.012928
1546000,0.0324,0.013523,0.002678,0.000431,0.011988
1547000,0.0324,0.013523,0.002678,0.000431,0.011518
1548000,0.0324,0.013523,0.002678,0.000431,0.011988
1549000,0.0324,0.013523,0.002678,0.000431,0.011400
1550000,0.0324,0.013523,0.002678,0.000431,0.010342
1551000,0.0324,0.013523,0.002678,0.000431,0.011165
1552000,0.0324,0.013523,0.002678,0.000431,0.011870
1553000,0.0324,0.013523,0.002678,0.000431,0.011165
1554000,0.0324,0.013523,0.002678,0.000431,0.011283
1555000,0.0324,0.013523,0.002678,0.000431,0.010695
1556000,0.0324,0.013523,0.002678,0.000431,0.010578
1557000,0.0324,0.013523,0.002678,0.000431,0.012105
1558000,0.0324,0.013523,0.002678,0.000431,0.011165
1559000,0.0324,0.013523,0.002678,0.000431,0.009167
1560000,0.0324,0.013523,0.002678,0.000431,0.009637
1561000,0.0324,0.013523,0.002678,0.000431,0.010578
1562000,0.0324,0.013523,0.002678,0.000431,0.010460
1563000,0.0324,0.013523,0.002678,0.000431,0.009872
1564000,0.0324,0.013523,0.002678,0.000431,0.009990
1565000,0.0324,0.013523,0.002678,0.000431,0.009755
1566000,0.0324,0.013523,0.002678,0.000431,0.008932
1567000,0.0324,0.013523,0.002678,0.000431,0.008227
1568000,0.0324,0.013523,0.002678,0.000431,0.008815
1569000,0.0324,0.013523,0.002678,0.000431,0.008932
1570000,0.0324,0.013523,0.002678,0.000431,0.008932
1571000,0.0324,0.013523,0.002678,0.000431,0.008580
1572000,0.0324,0.013523,0.002678,0.000431,0.009050
1573000,0.0324,0.013523,0.002678,0.000431,0.008697
1574000,0.0324,0.013523,0.002678,0.000431,0.008227
1575000,0.0324,0.013523,0.002678,0.000431,0.009285
1576000,0.0324,0.013523,0.002678,0.000431,0.008227
1577000,0.0324,0.013523,0.002678,0.000431,0.008580
1578000,0.0324,0.013523,0.002678,0.000431,0.007874
1579000,0.0324,0.013523,0.002678,0.000431,0.006934
1580000,0.0324,0.013523,0.002678,0.000431,0.008227
1581000,0.0324,0.013523,0.002678,0.000431,0.008815
1582000,0.0324,0.013523,0.002678,0.000431,0.008109
1583000,0.0324,0.013523,0.002678,0.000431,0.007169
1584000,0.0324,0.013523,0.002678,0.000431,0.007522
1585000,0.0324,0.013523,0.002678,0.000431,0.006699
1586000,0.0324,0.013523,0.002678,0.000431,0.006699
1587000,0.0324,0.013523,0.002678,0.000431,0.006817
1588000,0.0324,0.013523,0.002678,0.000431,0.007287
1589000,0.0324,0.013523,0.002678,0.000431,0.006817
1590000,0.0324,0.013523,0.002678,0.000431,0.006347
1591000,0.0324,0.013523,0.002678,0.000431,0.007052
1592000,0.0324,0.013523,0.002678,0.000431,0.007169
1593000,0.0324,0.013523,0.002678,0.000431,0.007287
1594000,0.0324,0.013523,0.002678,0.000431,0.006229
1595000,0.0324,0.013523,0.002678,0.000431,0.006934
1596000,0.0324,0.013523,0.002678,0.000431,0.005641
1597000,0.0324,0.013523,0.002678,0.000431,0.006934
1598000,0.0324,0.013523,0.002678,0.000431,0.006111
1599000,0.0324,0.013523,0.002678,0.000431,0.006934
1600000,0.0324,0.013523,0.002678,0.000431,0.006347
1601000,0.0324,0.013523,0.002678,0.000431,0.006464
1602000,0.0324,0.013523,0.002678,0.000431,0.006111
1603000,0.0324,0.013523,0.002678,0.000431,0.005876
1604000,0.0324,0.013523,0.002678,0.000431,0.006111
1605000,0.0324,0.013523,0.002678,0.000431,0.005994
1606000,0.0324,0.013523,0.002678,0.000431,0.006582
1607000,0.0324,0.013523,0.002678,0.000431,0.005994
1608000,0.0324,0.013523,0.002678,0.000431,0.005876
1609000,0.0324,0.013523,0.002678,0.000431,0.006111
1610000,0.0324,0.013523,0.002678,0.000431,0.006347
1611000,0.0324,0.013523,0.002678,0.000431,0.004701
1612000,0.0324,0.013523,0.002678,0.000431,0.006111
1613000,0.0324,0.013523,0.002678,0.000431,0.005759
1614000,0.0324,0.013523,0.002678,0.000431,0.005054
1615000,0.0324,0.013523,0.002678,0.000431,0.005641
1616000,0.0324,0.013523,0.002678,0.000431,0.005524
1617000,0.0324,0.013523,0.002678,0.000431,0.005406
1618000,0.0324,0.013523,0.002678,0.000431,0.005289
1619000,0.0324,0.013523,0.002678,0.000431,0.005289
1620000,0.0324,0.013523,0.002678,0.000431,0.004701
1621000,0.0324,0.013523,0.002678,0.000431,0.005759
1622000,0.0324,0.013523,0.002678,0.000431,0.004701
1623000,0.0324,0.013523,0.002678,0.000431,0.004701
1624000,0.0324,0.013523,0.002678,0.000431,0.005171
1625000,0.0324,0.013523,0.002678,0.000431,0.004584
1626000,0.0324,0.013523,0.002678,0.000431,0.005054
1627000,0.0324,0.013523,0.002678,0.000431,0.004231
1628000,0.0324,0.013523,0.002678,0.000431,0.004701
1629000,0.0324,0.013523,0.002678,0.000431,0.004819
1630000,0.0324,0.013523,0.002678,0.000431,0.004819
1631000,0.0324,0.013523,0.002678,0.000431,0.004701
1632000,0.0324,0.013523,0.002678,0.000431,0.004701
1633000,0.0324,0.013523,0.002678,0.000431,0.004819
1634000,0.0324,0.013523,0.002678,0.000431,0.004466
1635000,0.0324,0.013523,0.002678,0.000431,0.003526
1636000,0.0324,0.013523,0.002678,0.000431,0.004819
1637000,0.0324,0.013523,0.002678,0.000431,0.004701
1638000,0.0324,0.013523,0.002678,0.000431,0.003996
1639000,0.0324,0.013523,0.002678,0.000431,0.004466
1640000,0.0324,0.013523,0.002678,0.000431,0.003996
1641000,0.0324,0.013523,0.002678,0.000431,0.003878
1642000,0.0324,0.013523,0.002678,0.000431,0.003643
1643000,0.0324,0.013523,0.002678,0.000431,0.003408
1644000,0.0324,0.013523,0.002678,0.000431,0.004231
1645000,0.0324,0.013523,0.002678,0.000431,0.003996
1646000,0.0324,0.013523,0.002678,0.000431,0.004231
1647000,0.0324,0.013523,0.002678,0.000431,0.003878
1648000,0.0324,0.013523,0.002678,0.000431,0.003761
1649000,0.0324,0.013523,0.002678,0.000431,0.004113
1650000,0.0324,0.013523,0.002678,0.000431,0.004466
1651000,0.0324,0.013523,0.002678,0.000431,0.003761
1652000,0.0324,0.013523,0.002678,0.000431,0.003643
1653000,0.0324,0.013523,0.002678,0.000431,0.003643
1654000,0.0324,0.013523,0.002678,0.000431,0.003996
1655000,0.0324,0.013523,0.002678,0.000431,0.003643
1656000,0.0324,0.013523,0.002678,0.000431,0.003761
1657000,0.0324,0.013523,0.002678,0.000431,0.004113
1658000,0.0324,0.013523,0.002678,0.000431,0.004231
1659000,0.0324,0.013523,0.002678,0.000431,0.003643
1660000,0.0324,0.013523,0.002678,0.000431,0.003761
1661000,0.0324,0.013523,0.002678,0.000431,0.004349
1662000,0.0324,0.013523,0.002678,0.000431,0.003761
1663000,0.0324,0.013523,0.002678,0.000431,0.003878
1664000,0.0324,0.013523,0.002678,0.000431,0.003408
1665000,0.0324,0.013523,0.002678,0.000431,0.003761
1666000,0.0324,0.013523,0.002678,0.000431,0.003408
1667000,0.0324,0.013523,0.002678,0.000431,0.004113
1668000,0.0324,0.013523,0.002678,0.000431,0.004113
1669000,0.0324,0.013523,0.002678,0.000431,0.003878
1670000,0.0324,0.013523,0.002678,0.000431,0.002938
1671000,0.0324,0.013523,0.002678,0.000431,0.003643
1672000,0.0324,0.013523,0.002678,0.000431,0.003056
1673000,0.0324,0.013523,0.002678,0.000431,0.004231
1674000,0.0324,0.013523,0.002678,0.000431,0.003173
1675000,0.0324,0.013523,0.002678,0.000431,0.003878
1676000,0.0324,0.013523,0.002678,0.000431,0.003173
1677000,0.0324,0.013523,0.002678,0.000431,0.003408
1678000,0.0324,0.013523,0.002678,0.000431,0.003056
1679000,0.0324,0.013523,0.002678,0.000431,0.003526
1680000,0.0324,0.013523,0.002678,0.000431,0.003291
1681000,0.0324,0.013523,0.002678,0.000431,0.003761
1682000,0.0324,0.013523,0.002678,0.000431,0.002938
1683000,0.0324,0.013523,0.002678,0.000431,0.003173
1684000,0.0324,0.013523,0.002678,0.000431,0.003291
1685000,0.0324,0.013523,0.002678,0.000431,0.002821
1686000,0.0324,0.013523,0.002678,0.000431,0.002703
1687000,0.0324,0.013523,0.002678,0.000431,0.003291
1688000,0.0324,0.013523,0.002678,0.000431,0.003291
1689000,0.0324,0.013523,0.002678,0.000431,0.003761
1690000,0.0324,0.013523,0.002678,0.000431,0.003878
1691000,0.0324,0.013523,0.002678,0.000431,0.003408
1692000,0.0324,0.013523,0.002678,0.000431,0.002468
1693000,0.0324,0.013523,0.002678,0.000431,0.003878
1694000,0.0324,0.013523,0.002678,0.000431,0.003291
1695000,0.0324,0.013523,0.002678,0.000431,0.002821
1696000,0.0324,0.013523,0.002678,0.000431,0.002703
1697000,0.0324,0.013523,0.002678,0.000431,0.003173
1698000,0.0324,0.013523,0.002678,0.000431,0.003291
1699000,0.0324,0.013523,0.002678,0.000431,0.003526
1700000,0.0324,0.013523,0.002678,0.000431,0.002938
1701000,0.0324,0.013523,0.002678,0.000431,0.002703
1702000,0.0324,0.013523,0.002678,0.000431,0.003526
1703000,0.0324,0.013523,0.002678,0.000431,0.002586
1704000,0.0324,0.013523,0.002678,0.000431,0.002703
1705000,0.0324,0.013523,0.002678,0.000431,0.002703
1706000,0.0324,0.013523,0.002678,0.000431,0.003291
1707000,0.0324,0.013523,0.002678,0.000431,0.003056
1708000,0.0324,0.013523,0.002678,0.000431,0.003291
1709000,0.0324,0.013523,0.002678,0.000431,0.003173
1710000,0.0324,0.013523,0.002678,0.000431,0.003056
1711000,0.0324,0.013523,0.002678,0.000431,0.002938
1712000,0.0324,0.013523,0.002678,0.000431,0.002468
1713000,0.0324,0.013523,0.002678,0.000431,0.003526
1714000,0.0324,0.013523,0.002678,0.000431,0.003761
1715000,0.0324,0.013523,0.002678,0.000431,0.002586
1716000,0.0324,0.013523,0.002678,0.000431,0.002703
1717000,0.0324,0.013523,0.002678,0.000431,0.002821
1718000,0.0324,0.013523,0.002678,0.000431,0.002821
1719000,0.0324,0.013523,0.002678,0.000431,0.003173
1720000,0.0324,0.013523,0.002678,0.000431,0.003526
1721000,0.0324,0.013523,0.002678,0.000431,0.002938
1722000,0.0324,0.013523,0.002678,0.000431,0.003056
1723000,0.0324,0.013523,0.002678,0.000431,0.002938
1724000,0.0324,0.013523,0.002678,0.000431,0.003408
1725000,0.0324,0.013523,0.002678,0.000431,0.002116
1726000,0.0324,0.013523,0.002678,0.000431,0.002821
1727000,0.0324,0.013523,0.002678,0.000431,0.003408
1728000,0.0324,0.013523,0.002678,0.000431,0.002703
1729000,0.0324,0.013523,0.002678,0.000431,0.002703
1730000,0.0324,0.013523,0.002678,0.000431,0.002586
1731000,0.0324,0.013523,0.002678,0.000431,0.002468
1732000,0.0324,0.013523,0.002678,0.000431,0.002703
1733000,0.0324,0.013523,0.002678,0.000431,0.002703
1734000,0.0324,0.013523,0.002678,0.000431,0.003291
1735000,0.0324,0.013523,0.002678,0.000431,0.002586
1736000,0.0324,0.013523,0.002678,0.000431,0.002703
1737000,0.0324,0.013523,0.002678,0.000431,0.001645
1738000,0.0324,0.013523,0.002678,0.000431,0.002116
1739000,0.0324,0.013523,0.002678,0.000431,0.002351
1740000,0.0324,0.013523,0.002678,0.000431,0.001528
1741000,0.0324,0.013523,0.002678,0.000431,0.001880
1742000,0.0324,0.013523,0.002678,0.000431,0.002351
1743000,0.0324,0.013523,0.002678,0.000431,0.001880
1744000,0.0324,0.013523,0.002678,0.000431,0.002468
1745000,0.0324,0.013523,0.002678,0.000431,0.001763
1746000,0.0324,0.013523,0.002678,0.000431,0.001998
1747000,0.0324,0.013523,0.002678,0.000431,0.001998
1748000,0.0324,0.013523,0.002678,0.000431,0.002468
1749000,0.0324,0.013523,0.002678,0.000431,0.002351
1750000,0.0324,0.013523,0.002678,0.000431,0.002468
1751000,0.0324,0.013523,0.002678,0.000431,0.002351
1752000,0.0324,0.013523,0.002678,0.000431,0.001763
1753000,0.0324,0.013523,0.002678,0.000431,0.002233
1754000,0.0324,0.013523,0.002678,0.000431,0.001645
1755000,0.0324,0.013523,0.002678,0.000431,0.002351
1756000,0.0324,0.013523,0.002678,0.000431,0.002351
1757000,0.0324,0.013523,0.002678,0.000431,0.002351
1758000,0.0324,0.013523,0.002678,0.000431,0.001645
1759000,0.0324,0.013523,0.002678,0.000431,0.001998
1760000,0.0324,0.013523,0.002678,0.000431,0.002351
1761000,0.0324,0.013523,0.002678,0.000431,0.001998
1762000,0.0324,0.013523,0.002678,0.000431,0.002468
1763000,0.0324,0.013523,0.002678,0.000431,0.002468
1764000,0.0324,0.013523,0.002678,0.000431,0.001998
1765000,0.0324,0.013523,0.002678,0.000431,0.002703
1766000,0.0324,0.013523,0.002678,0.000431,0.002468
1767000,0.0324,0.013523,0.002678,0.000431,0.002116
1768000,0.0324,0.013523,0.002678,0.000431,0.001998
1769000,0.0324,0.013523,0.002678,0.000431,0.002116
1770000,0.0324,0.013523,0.002678,0.000431,0.001763
1771000,0.0324,0.013523,0.002678,0.000431,0.002586
1772000,0.0324,0.013523,0.002678,0.000431,0.002233
1773000,0.0324,0.013523,0.002678,0.000431,0.002233
1774000,0.0324,0.013523,0.002678,0.000431,0.002116
1775000,0.0324,0.013523,0.002678,0.000431,0.002233
1776000,0.0324,0.013523,0.002678,0.000431,0.002468
1777000,0.0324,0.013523,0.002678,0.000431,0.001880
1778000,0.0324,0.013523,0.002678,0.000431,0.001880
1779000,0.0324,0.013523,0.002678,0.000431,0.002233
1780000,0.0324,0.013523,0.002678,0.000431,0.002233
1781000,0.0324,0.013523,0.002678,0.000431,0.002233
1782000,0.0324,0.013523,0.002678,0.000431,0.001998
1783000,0.0324,0.013523,0.002678,0.000431,0.002116
1784000,0.0324,0.013523,0.002678,0.000431,0.002351
1785000,0.0324,0.013523,0.002678,0.000431,0.002351
1786000,0.0324,0.013523,0.002678,0.000431,0.002468
1787000,0.0324,0.013523,0.002678,0.000431,0.002233
1788000,0.0324,0.013523,0.002678,0.000431,0.001880
1789000,0.0324,0.013523,0.002678,0.000431,0.002703
1790000,0.0324,0.013523,0.002678,0.000431,0.001763
1791000,0.0324,0.013523,0.002678,0.000431,0.002351
1792000,0.0324,0.013523,0.002678,0.000431,0.001998
1793000,0.0324,0.013523,0.002678,0.000431,0.002116
1794000,0.0324,0.013523,0.002678,0.000431,0.002116
1795000,0.0324,0.013523,0.002678,0.000431,0.001998
1796000,0.0324,0.013523,0.002678,0.000431,0.002468
1797000,0.0324,0.013523,0.002678,0.000431,0.002116
1798000,0.0324,0.013523,0.002678,0.000431,0.002233
1799000,0.0324,0.013523,0.002678,0.000431,0.002116
1800000,0.0324,0.013523,0.002678,0.000431,0.001410
1801000,0.0324,0.013523,0.002678,0.000431,0.001410
1802000,0.0324,0.013523,0.002678,0.000431,0.001645
1803000,0.0324,0.013523,0.002678,0.000431,0.001410
1804000,0.0324,0.013523,0.002678,0.000431,0.001645
1805000,0.0324,0.013523,0.002678,0.000431,0.001880
1806000,0.0324,0.013523,0.002678,0.000431,0.001763
1807000,0.0324,0.013523,0.002678,0.000431,0.001410
1808000,0.0324,0.013523,0.002678,0.000431,0.001528
1809000,0.0324,0.013523,0.002678,0.000431,0.001410
1810000,0.0324,0.013523,0.002678,0.000431,0.001763
1811000,0.0324,0.013523,0.002678,0.000431,0.001763
1812000,0.0324,0.013523,0.002678,0.000431,0.001528
1813000,0.0324,0.013523,0.002678,0.000431,0.001293
1814000,0.0324,0.013523,0.002678,0.000431,0.001998
1815000,0.0324,0.013523,0.002678,0.000431,0.001293
1816000,0.0324,0.013523,0.002678,0.000431,0.001763
1817000,0.0324,0.013523,0.002678,0.000431,0.001410
1818000,0.0324,0.013523,0.002678,0.000431,0.001763
1819000,0.0324,0.013523,0.002678,0.000431,0.001645
1820000,0.0324,0.013523,0.002678,0.000431,0.001880
1821000,0.0324,0.013523,0.002678,0.000431,0.001763
1822000,0.0324,0.013523,0.002678,0.000431,0.001528
1823000,0.0324,0.013523,0.002678,0.000431,0.001763
1824000,0.0324,0.013523,0.002678,0.000431,0.001528
1825000,0.0324,0.013523,0.002678,0.000431,0.001645
1826000,0.0324,0.013523,0.002678,0.000431,0.001410
1827000,0.0324,0.013523,0.002678,0.000431,0.001763
1828000,0.0324,0.013523,0.002678,0.000431,0.001410
1829000,0.0324,0.013523,0.002678,0.000431,0.001528
1830000,0.0324,0.013523,0.002678,0.000431,0.001645
1831000,0.0324,0.013523,0.002678,0.000431,0.001998
1832000,0.0324,0.013523,0.002678,0.000431,0.001293
1833000,0.0324,0.013523,0.002678,0.000431,0.001763
1834000,0.0324,0.013523,0.002678,0.000431,0.001528
1835000,0.0324,0.013523,0.002678,0.000431,0.001880
1836000,0.0324,0.013523,0.002678,0.000431,0.001645
1837000,0.0324,0.013523,0.002678,0.000431,0.001528
1838000,0.0324,0.013523,0.002678,0.000431,0.001645
1839000,0.0324,0.013523,0.002678,0.000431,0.001645
1840000,0.0324,0.013523,0.002678,0.000431,0.001645
1841000,0.0324,0.013523,0.002678,0.000431,0.001645
1842000,0.0324,0.013523,0.002678,0.000431,0.001998
1843000,0.0324,0.013523,0.002678,0.000431,0.001645
1844000,0.0324,0.013523,0.002678,0.000431,0.001528
1845000,0.0324,0.013523,0.002678,0.000431,0.001410
1846000,0.0324,0.013523,0.002678,0.000431,0.001763
1847000,0.0324,0.013523,0.002678,0.000431,0.001880
1848000,0.0324,0.013523,0.002678,0.000431,0.001763
1849000,0.0324,0.013523,0.002678,0.000431,0.001880
1850000,0.0324,0.013523,0.002678,0.000431,0.001645
1851000,0.0324,0.013523,0.002678,0.000431,0.001528
1852000,0.0324,0.013523,0.002678,0.000431,0.001410
1853000,0.0324,0.013523,0.002678,0.000431,0.001998
1854000,0.0324,0.013523,0.002678,0.000431,0.001175
1855000,0.0324,0.013523,0.002678,0.000431,0.002116
1856000,0.0324,0.013523,0.002678,0.000431,0.001763
1857000,0.0324,0.013523,0.002678,0.000431,0.001880
1858000,0.0324,0.013523,0.002678,0.000431,0.001880
1859000,0.0324,0.013523,0.002678,0.000431,0.001293
1860000,0.0324,0.013523,0.002678,0.000431,0.001528
1861000,0.0324,0.013523,0.002678,0.000431,0.001410
1862000,0.0324,0.013523,0.002678,0.000431,0.001645
1863000,0.0324,0.013523,0.002678,0.000431,0.001645
1864000,0.0324,0.013523,0.002678,0.000431,0.001763
1865000,0.0324,0.013523,0.002678,0.000431,0.001763
1866000,0.0324,0.013523,0.002678,0.000431,0.001175
1867000,0.0324,0.013523,0.002678,0.000431,0.001763
1868000,0.0324,0.013523,0.002678,0.000431,0.001528
1869000,0.0324,0.013523,0.002678,0.000431,0.001645
1870000,0.0324,0.013523,0.002678,0.000431,0.001880
1871000,0.0324,0.013523,0.002678,0.000431,0.001410
1872000,0.0324,0.013523,0.002678,0.000431,0.001645
1873000,0.0324,0.013523,0.002678,0.000431,0.001528
1874000,0.0324,0.013523,0.002678,0.000431,0.001763
1875000,0.0324,0.013523,0.002678,0.000431,0.001763
1876000,0.0324,0.013523,0.002678,0.000431,0.001763
1877000,0.0324,0.013523,0.002678,0.000431,0.001528
1878000,0.0324,0.013523,0.002678,0.000431,0.001293
1879000,0.0324,0.013523,0.002678,0.000431,0.001645
1880000,0.0324,0.013523,0.002678,0.000431,0.001175
1881000,0.0324,0.013523,0.002678,0.000431,0.001645
1882000,0.0324,0.013523,0.002678,0.000431,0.001528
1883000,0.0324,0.013523,0.002678,0.000431,0.001528
1884000,0.0324,0.013523,0.002678,0.000431,0.001763
1885000,0.0324,0.013523,0.002678,0.000431,0.001880
1886000,0.0324,0.013523,0.002678,0.000431,0.001645
1887000,0.0324,0.013523,0.002678,0.000431,0.001645
1888000,0.0324,0.013523,0.002678,0.000431,0.001528
1889000,0.0324,0.013523,0.002678,0.000431,0.001410
1890000,0.0324,0.013523,0.002678,0.000431,0.001763
1891000,0.0324,0.013523,0.002678,0.000431,0.001293
1892000,0.0324,0.013523,0.002678,0.000431,0.001998
1893000,0.0324,0.013523,0.002678,0.000431,0.001763
1894000,0.0324,0.013523,0.002678,0.000431,0.001528
1895000,0.0324,0.013523,0.002678,0.000431,0.001763
1896000,0.0324,0.013523,0.002678,0.000431,0.001528
1897000,0.0324,0.013523,0.002678,0.000431,0.001645
1898000,0.0324,0.013523,0.002678,0.000431,0.001175
1899000,0.0324,0.013523,0.002678,0.000431,0.001645
1900000,0.0324,0.013523,0.002678,0.000431,0.001528
1901000,0.0324,0.013523,0.002678,0.000431,0.001410
1902000,0.0324,0.013523,0.002678,0.000431,0.001410
1903000,0.0324,0.013523,0.002678,0.000431,0.001528
1904000,0.0324,0.013523,0.002678,0.000431,0.001763
1905000,0.0324,0.013523,0.002678,0.000431,0.001175
1906000,0.0324,0.013523,0.002678,0.000431,0.001880
1907000,0.0324,0.013523,0.002678,0.000431,0.001293
1908000,0.0324,0.013523,0.002678,0.000431,0.001763
1909000,0.0324,0.013523,0.002678,0.000431,0.001528
1910000,0.0324,0.013523,0.002678,0.000431,0.001763
1911000,0.0324,0.013523,0.002678,0.000431,0.001058
1912000,0.0324,0.013523,0.002678,0.000431,0.001645
1913000,0.0324,0.013523,0.002678,0.000431,0.001293
1914000,0.0324,0.013523,0.002678,0.000431,0.001763
1915000,0.0324,0.013523,0.002678,0.000431,0.001645
1916000,0.0324,0.013523,0.002678,0.000431,0.001528
1917000,0.0324,0.013523,0.002678,0.000431,0.001880
1918000,0.0324,0.013523,0.002678,0.000431,0.001998
1919000,0.0324,0.013523,0.002678,0.000431,0.001410
1920000,0.0324,0.013523,0.002678,0.000431,0.001645
1921000,0.0324,0.013523,0.002678,0.000431,0.001410
1922000,0.0324,0.013523,0.002678,0.000431,0.001410
1923000,0.0324,0.013523,0.002678,0.000431,0.001645
1924000,0.0324,0.013523,0.002678,0.000431,0.001763
1925000,0.0324,0.013523,0.002678,0.000431,0.001998
1926000,0.0324,0.013523,0.002678,0.000431,0.001763
1927000,0.0324,0.013523,0.002678,0.000431,0.001528
1928000,0.0324,0.013523,0.002678,0.000431,0.001880
1929000,0.0324,0.013523,0.002678,0.000431,0.001763
1930000,0.0324,0.013523,0.002678,0.000431,0.001763
1931000,0.0324,0.013523,0.002678,0.000431,0.001645
1932000,0.0324,0.013523,0.002678,0.000431,0.001645
1933000,0.0324,0.013523,0.002678,0.000431,0.001528
1934000,0.0324,0.013523,0.002678,0.000431,0.001763
1935000,0.0324,0.013523,0.002678,0.000431,0.001763
1936000,0.0324,0.013523,0.002678,0.000431,0.001763
1937000,0.0324,0.013523,0.002678,0.000431,0.001175
1938000,0.0324,0.013523,0.002678,0.000431,0.001880
1939000,0.0324,0.013523,0.002678,0.000431,0.001528
1940000,0.0324,0.013523,0.002678,0.000431,0.001175
1941000,0.0324,0.013523,0.002678,0.000431,0.001410
1942000,0.0324,0.013523,0.002678,0.000431,0.001293
1943000,0.0324,0.013523,0.002678,0.000431,0.001528
1944000,0.0324,0.013523,0.002678,0.000431,0.001293
1945000,0.0324,0.013523,0.002678,0.000431,0.001645
1946000,0.0324,0.013523,0.002678,0.000431,0.001645
1947000,0.0324,0.013523,0.002678,0.000431,0.001528
1948000,0.0324,0.013523,0.002678,0.000431,0.001410
1949000,0.0324,0.013523,0.002678,0.000431,0.001528
1950000,0.0324,0.013523,0.002678,0.000431,0.001528
1951000,0.0324,0.013523,0.002678,0.000431,0.001528
1952000,0.0324,0.013523,0.002678,0.000431,0.001645
1953000,0.0324,0.013523,0.002678,0.000431,0.001763
1954000,0.0324,0.013523,0.002678,0.000431,0.001528
1955000,0.0324,0.013523,0.002678,0.000431,0.001880
1956000,0.0324,0.013523,0.002678,0.000431,0.001410
1957000,0.0324,0.013523,0.002678,0.000431,0.001528
1958000,0.0324,0.013523,0.002678,0.000431,0.001410
1959000,0.0324,0.013523,0.002678,0.000431,0.001645
1960000,0.0324,0.013523,0.002678,0.000431,0.001763
1961000,0.0324,0.013523,0.002678,0.000431,0.001528
1962000,0.0324,0.013523,0.002678,0.000431,0.001410
1963000,0.0324,0.013523,0.002678,0.000431,0.001645
1964000,0.0324,0.013523,0.002678,0.000431,0.001645
1965000,0.0324,0.013523,0.002678,0.000431,0.001998
1966000,0.0324,0.013523,0.002678,0.000431,0.001293
1967000,0.0324,0.013523,0.002678,0.000431,0.001528
1968000,0.0324,0.013523,0.002678,0.000431,0.001528
1969000,0.0324,0.013523,0.002678,0.000431,0.001410
1970000,0.0324,0.013523,0.002678,0.000431,0.001645
1971000,0.0324,0.013523,0.002678,0.000431,0.001528
1972000,0.0324,0.013523,0.002678,0.000431,0.001528
1973000,0.0324,0.013523,0.002678,0.000431,0.001645
1974000,0.0324,0.013523,0.002678,0.000431,0.001763
1975000,0.0324,0.013523,0.002678,0.000431,0.001645
1976000,0.0324,0.013523,0.002678,0.000431,0.001528
1977000,0.0324,0.013523,0.002678,0.000431,0.001763
1978000,0.0324,0.013523,0.002678,0.000431,0.001528
1979000,0.0324,0.013523,0.002678,0.000431,0.001645
1980000,0.0324,0.013523,0.002678,0.000431,0.001410
1981000,0.0324,0.013523,0.002678,0.000431,0.001763
1982000,0.0324,0.013523,0.002678,0.000431,0.001410
1983000,0.0324,0.013523,0.002678,0.000431,0.001645
1984000,0.0324,0.013523,0.002678,0.000431,0.001998
1985000,0.0324,0.013523,0.002678,0.000431,0.001528
1986000,0.0324,0.013523,0.002678,0.000431,0.001410
1987000,0.0324,0.013523,0.002678,0.000431,0.001998
1988000,0.0324,0.013523,0.002678,0.000431,0.001763
1989000,0.0324,0.013523,0.002678,0.000431,0.001645
1990000,0.0324,0.013523,0.002678,0.000431,0.001763
1991000,0.0324,0.013523,0.002678,0.000431,0.001528
1992000,0.0324,0.013523,0.002678,0.000431,0.001645
1993000,0.0324,0.013523,0.002678,0.000431,0.001645
1994000,0.0324,0.013523,0.002678,0.000431,0.001880
1995000,0.0324,0.013523,0.002678,0.000431,0.001645
1996000,0.0324,0.013523,0.002678,0.000431,0.001763
1997000,0.0324,0.013523,0.002678,0.000431,0.001410
1998000,0.0324,0.013523,0.002678,0.000431,0.001998
1999000,0.0324,0.013523,0.002678,0.000431,0.001293
