Cycle,Area(mm^2),PeakDynamic(W),SubthresholdLeakage(W),GateLeakage(W),RunTimeDynamic(W)
7000000,0.0324,0.013523,0.002678,0.000431,0.291000
7001000,0.0324,0.013523,0.002678,0.000431,0.111534
7002000,0.0324,0.013523,0.002678,0.000431,0.091672
7003000,0.0324,0.013523,0.002678,0.000431,0.112945
7004000,0.0324,0.013523,0.002678,0.000431,0.135275
7005000,0.0324,0.013523,0.002678,0.000431,0.108596
7006000,0.0324,0.013523,0.002678,0.000431,0.093670
7007000,0.0324,0.013523,0.002678,0.000431,0.203559
7008000,0.0324,0.013523,0.002678,0.000431,0.169358
7009000,0.0324,0.013523,0.002678,0.000431,0.034788
7010000,0.0324,0.013523,0.002678,0.000431,0.076041
7011000,0.0324,0.013523,0.002678,0.000431,0.125403
7012000,0.0324,0.013523,0.002678,0.000431,0.062290
7013000,0.0324,0.013523,0.002678,0.000431,0.087441
7014000,0.0324,0.013523,0.002678,0.000431,0.183461
7015000,0.0324,0.013523,0.002678,0.000431,0.067579
7016000,0.0324,0.013523,0.002678,0.000431,0.152081
7017000,0.0324,0.013523,0.002678,0.000431,0.076628
7018000,0.0324,0.013523,0.002678,0.000431,0.114708
7019000,0.0324,0.013523,0.002678,0.000431,0.068284
7020000,0.0324,0.013523,0.002678,0.000431,0.099546
7021000,0.0324,0.013523,0.002678,0.000431,0.053828
7022000,0.0324,0.013523,0.002678,0.000431,0.066286
7023000,0.0324,0.013523,0.002678,0.000431,0.113297
7024000,0.0324,0.013523,0.002678,0.000431,0.192981
7025000,0.0324,0.013523,0.002678,0.000431,0.103425
7026000,0.0324,0.013523,0.002678,0.000431,0.121172
7027000,0.0324,0.013523,0.002678,0.000431,0.153727
7028000,0.0324,0.013523,0.002678,0.000431,0.057354
7029000,0.0324,0.013523,0.002678,0.000431,0.198505
7030000,0.0324,0.013523,0.002678,0.000431,0.098254
7031000,0.0324,0.013523,0.002678,0.000431,0.074630
7032000,0.0324,0.013523,0.002678,0.000431,0.080742
7033000,0.0324,0.013523,0.002678,0.000431,0.170768
7034000,0.0324,0.013523,0.002678,0.000431,0.208142
7035000,0.0324,0.013523,0.002678,0.000431,0.098254
7036000,0.0324,0.013523,0.002678,0.000431,0.085208
7037000,0.0324,0.013523,0.002678,0.000431,0.174764
7038000,0.0324,0.013523,0.002678,0.000431,0.083915
7039000,0.0324,0.013523,0.002678,0.000431,0.100604
7040000,0.0324,0.013523,0.002678,0.000431,0.127401
7041000,0.0324,0.013523,0.002678,0.000431,0.042310
7042000,0.0324,0.013523,0.002678,0.000431,0.057589
7043000,0.0324,0.013523,0.002678,0.000431,0.125403
7044000,0.0324,0.013523,0.002678,0.000431,0.037727
7045000,0.0324,0.013523,0.002678,0.000431,0.152787
7046000,0.0324,0.013523,0.002678,0.000431,0.123522
7047000,0.0324,0.013523,0.002678,0.000431,0.196155
7048000,0.0324,0.013523,0.002678,0.000431,0.114472
7049000,0.0324,0.013523,0.002678,0.000431,0.131397
7050000,0.0324,0.013523,0.002678,0.000431,0.154902
7051000,0.0324,0.013523,0.002678,0.000431,0.068872
7052000,0.0324,0.013523,0.002678,0.000431,0.088146
7053000,0.0324,0.013523,0.002678,0.000431,0.079802
7054000,0.0324,0.013523,0.002678,0.000431,0.066521
7055000,0.0324,0.013523,0.002678,0.000431,0.070517
7056000,0.0324,0.013523,0.002678,0.000431,0.136450
7057000,0.0324,0.013523,0.002678,0.000431,0.115648
7058000,0.0324,0.013523,0.002678,0.000431,0.162541
7059000,0.0324,0.013523,0.002678,0.000431,0.065228
7060000,0.0324,0.013523,0.002678,0.000431,0.067579
7061000,0.0324,0.013523,0.002678,0.000431,0.093435
7062000,0.0324,0.013523,0.002678,0.000431,0.047716
7063000,0.0324,0.013523,0.002678,0.000431,0.141034
7064000,0.0324,0.013523,0.002678,0.000431,0.157723
7065000,0.0324,0.013523,0.002678,0.000431,0.128811
7066000,0.0324,0.013523,0.002678,0.000431,0.053710
7067000,0.0324,0.013523,0.002678,0.000431,0.066991
7068000,0.0324,0.013523,0.002678,0.000431,0.114825
7069000,0.0324,0.013523,0.002678,0.000431,0.112592
7070000,0.0324,0.013523,0.002678,0.000431,0.095433
7071000,0.0324,0.013523,0.002678,0.000431,0.080154
7072000,0.0324,0.013523,0.002678,0.000431,0.043133
7073000,0.0324,0.013523,0.002678,0.000431,0.086971
7074000,0.0324,0.013523,0.002678,0.000431,0.181816
7075000,0.0324,0.013523,0.002678,0.000431,0.102250
7076000,0.0324,0.013523,0.002678,0.000431,0.130339
7077000,0.0324,0.013523,0.002678,0.000431,0.079332
7078000,0.0324,0.013523,0.002678,0.000431,0.080272
7079000,0.0324,0.013523,0.002678,0.000431,0.050537
7080000,0.0324,0.013523,0.002678,0.000431,0.035376
7081000,0.0324,0.013523,0.002678,0.000431,0.095785
7082000,0.0324,0.013523,0.002678,0.000431,0.126343
7083000,0.0324,0.013523,0.002678,0.000431,0.135510
7084000,0.0324,0.013523,0.002678,0.000431,0.151611
7085000,0.0324,0.013523,0.002678,0.000431,0.196272
7086000,0.0324,0.013523,0.002678,0.000431,0.094845
7087000,0.0324,0.013523,0.002678,0.000431,0.261030
7088000,0.0324,0.013523,0.002678,0.000431,0.084268
7089000,0.0324,0.013523,0.002678,0.000431,0.065463
7090000,0.0324,0.013523,0.002678,0.000431,0.230355
7091000,0.0324,0.013523,0.002678,0.000431,0.071692
7092000,0.0324,0.013523,0.002678,0.000431,0.058882
7093000,0.0324,0.013523,0.002678,0.000431,0.057706
7094000,0.0324,0.013523,0.002678,0.000431,0.065463
7095000,0.0324,0.013523,0.002678,0.000431,0.107656
7096000,0.0324,0.013523,0.002678,0.000431,0.182404
7097000,0.0324,0.013523,0.002678,0.000431,0.153727
7098000,0.0324,0.013523,0.002678,0.000431,0.174059
7099000,0.0324,0.013523,0.002678,0.000431,0.053945
7100000,0.0324,0.013523,0.002678,0.000431,0.181228
7101000,0.0324,0.013523,0.002678,0.000431,0.122229
7102000,0.0324,0.013523,0.002678,0.000431,0.042545
7103000,0.0324,0.013523,0.002678,0.000431,0.185930
7104000,0.0324,0.013523,0.002678,0.000431,0.102955
7105000,0.0324,0.013523,0.002678,0.000431,0.047011
7106000,0.0324,0.013523,0.002678,0.000431,0.076981
7107000,0.0324,0.013523,0.002678,0.000431,0.170298
7108000,0.0324,0.013523,0.002678,0.000431,0.241638
7109000,0.0324,0.013523,0.002678,0.000431,0.096256
7110000,0.0324,0.013523,0.002678,0.000431,0.113180
7111000,0.0324,0.013523,0.002678,0.000431,0.139271
7112000,0.0324,0.013523,0.002678,0.000431,0.108714
7113000,0.0324,0.013523,0.002678,0.000431,0.137155
7114000,0.0324,0.013523,0.002678,0.000431,0.206027
7115000,0.0324,0.013523,0.002678,0.000431,0.061820
7116000,0.0324,0.013523,0.002678,0.000431,0.080389
7117000,0.0324,0.013523,0.002678,0.000431,0.053710
7118000,0.0324,0.013523,0.002678,0.000431,0.057471
7119000,0.0324,0.013523,0.002678,0.000431,0.065346
7120000,0.0324,0.013523,0.002678,0.000431,0.080389
7121000,0.0324,0.013523,0.002678,0.000431,0.087794
7122000,0.0324,0.013523,0.002678,0.000431,0.098841
7123000,0.0324,0.013523,0.002678,0.000431,0.094963
7124000,0.0324,0.013523,0.002678,0.000431,0.076628
7125000,0.0324,0.013523,0.002678,0.000431,0.149026
7126000,0.0324,0.013523,0.002678,0.000431,0.071340
7127000,0.0324,0.013523,0.002678,0.000431,0.102837
7128000,0.0324,0.013523,0.002678,0.000431,0.061232
7129000,0.0324,0.013523,0.002678,0.000431,0.156665
7130000,0.0324,0.013523,0.002678,0.000431,0.199680
7131000,0.0324,0.013523,0.002678,0.000431,0.117528
7132000,0.0324,0.013523,0.002678,0.000431,0.141857
7133000,0.0324,0.013523,0.002678,0.000431,0.045131
7134000,0.0324,0.013523,0.002678,0.000431,0.073103
7135000,0.0324,0.013523,0.002678,0.000431,0.085325
7136000,0.0324,0.013523,0.002678,0.000431,0.138448
7137000,0.0324,0.013523,0.002678,0.000431,0.124345
7138000,0.0324,0.013523,0.002678,0.000431,0.107421
7139000,0.0324,0.013523,0.002678,0.000431,0.072750
7140000,0.0324,0.013523,0.002678,0.000431,0.127753
7141000,0.0324,0.013523,0.002678,0.000431,0.082270
7142000,0.0324,0.013523,0.002678,0.000431,0.121524
7143000,0.0324,0.013523,0.002678,0.000431,0.057824
7144000,0.0324,0.013523,0.002678,0.000431,0.035141
7145000,0.0324,0.013523,0.002678,0.000431,0.096843
7146000,0.0324,0.013523,0.002678,0.000431,0.176762
7147000,0.0324,0.013523,0.002678,0.000431,0.140681
7148000,0.0324,0.013523,0.002678,0.000431,0.042780
7149000,0.0324,0.013523,0.002678,0.000431,0.076746
7150000,0.0324,0.013523,0.002678,0.000431,0.068872
7151000,0.0324,0.013523,0.002678,0.000431,0.062055
7152000,0.0324,0.013523,0.002678,0.000431,0.105070
7153000,0.0324,0.013523,0.002678,0.000431,0.119291
7154000,0.0324,0.013523,0.002678,0.000431,0.102132
7155000,0.0324,0.013523,0.002678,0.000431,0.058647
7156000,0.0324,0.013523,0.002678,0.000431,0.098489
7157000,0.0324,0.013523,0.002678,0.000431,0.195332
7158000,0.0324,0.013523,0.002678,0.000431,0.142327
7159000,0.0324,0.013523,0.002678,0.000431,0.091672
7160000,0.0324,0.013523,0.002678,0.000431,0.122112
7161000,0.0324,0.013523,0.002678,0.000431,0.225066
7162000,0.0324,0.013523,0.002678,0.000431,0.056061
7163000,0.0324,0.013523,0.002678,0.000431,0.201443
7164000,0.0324,0.013523,0.002678,0.000431,0.132454
7165000,0.0324,0.013523,0.002678,0.000431,0.120114
7166000,0.0324,0.013523,0.002678,0.000431,0.107773
7167000,0.0324,0.013523,0.002678,0.000431,0.057824
7168000,0.0324,0.013523,0.002678,0.000431,0.079919
7169000,0.0324,0.013523,0.002678,0.000431,0.081094
7170000,0.0324,0.013523,0.002678,0.000431,0.176057
7171000,0.0324,0.013523,0.002678,0.000431,0.118586
7172000,0.0324,0.013523,0.002678,0.000431,0.121642
7173000,0.0324,0.013523,0.002678,0.000431,0.189220
7174000,0.0324,0.013523,0.002678,0.000431,0.174412
7175000,0.0324,0.013523,0.002678,0.000431,0.095080
7176000,0.0324,0.013523,0.002678,0.000431,0.133982
7177000,0.0324,0.013523,0.002678,0.000431,0.147263
7178000,0.0324,0.013523,0.002678,0.000431,0.068166
7179000,0.0324,0.013523,0.002678,0.000431,0.155607
7180000,0.0324,0.013523,0.002678,0.000431,0.149026
7181000,0.0324,0.013523,0.002678,0.000431,0.162189
7182000,0.0324,0.013523,0.002678,0.000431,0.117176
7183000,0.0324,0.013523,0.002678,0.000431,0.088499
7184000,0.0324,0.013523,0.002678,0.000431,0.102955
7185000,0.0324,0.013523,0.002678,0.000431,0.121642
7186000,0.0324,0.013523,0.002678,0.000431,0.144207
7187000,0.0324,0.013523,0.002678,0.000431,0.119761
7188000,0.0324,0.013523,0.002678,0.000431,0.099781
7189000,0.0324,0.013523,0.002678,0.000431,0.126225
7190000,0.0324,0.013523,0.002678,0.000431,0.149731
7191000,0.0324,0.013523,0.002678,0.000431,0.070987
7192000,0.0324,0.013523,0.002678,0.000431,0.145147
7193000,0.0324,0.013523,0.002678,0.000431,0.101544
7194000,0.0324,0.013523,0.002678,0.000431,0.117176
7195000,0.0324,0.013523,0.002678,0.000431,0.049949
7196000,0.0324,0.013523,0.002678,0.000431,0.129163
7197000,0.0324,0.013523,0.002678,0.000431,0.099194
7198000,0.0324,0.013523,0.002678,0.000431,0.193686
7199000,0.0324,0.013523,0.002678,0.000431,0.176175
7200000,0.0324,0.013523,0.002678,0.000431,0.083915
7201000,0.0324,0.013523,0.002678,0.000431,0.114708
7202000,0.0324,0.013523,0.002678,0.000431,0.186400
7203000,0.0324,0.013523,0.002678,0.000431,0.058059
7204000,0.0324,0.013523,0.002678,0.000431,0.290882
7205000,0.0324,0.013523,0.002678,0.000431,0.367746
7206000,0.0324,0.013523,0.002678,0.000431,0.154197
7207000,0.0324,0.013523,0.002678,0.000431,0.117881
7208000,0.0324,0.013523,0.002678,0.000431,0.046189
7209000,0.0324,0.013523,0.002678,0.000431,0.091790
7210000,0.0324,0.013523,0.002678,0.000431,0.126225
7211000,0.0324,0.013523,0.002678,0.000431,0.188398
7212000,0.0324,0.013523,0.002678,0.000431,0.166772
7213000,0.0324,0.013523,0.002678,0.000431,0.127871
7214000,0.0324,0.013523,0.002678,0.000431,0.078156
7215000,0.0324,0.013523,0.002678,0.000431,0.067109
7216000,0.0324,0.013523,0.002678,0.000431,0.070987
7217000,0.0324,0.013523,0.002678,0.000431,0.206967
7218000,0.0324,0.013523,0.002678,0.000431,0.151141
7219000,0.0324,0.013523,0.002678,0.000431,0.132219
7220000,0.0324,0.013523,0.002678,0.000431,0.068401
7221000,0.0324,0.013523,0.002678,0.000431,0.053945
7222000,0.0324,0.013523,0.002678,0.000431,0.088734
7223000,0.0324,0.013523,0.002678,0.000431,0.095668
7224000,0.0324,0.013523,0.002678,0.000431,0.178290
7225000,0.0324,0.013523,0.002678,0.000431,0.069224
7226000,0.0324,0.013523,0.002678,0.000431,0.258327
7227000,0.0324,0.013523,0.002678,0.000431,0.097901
7228000,0.0324,0.013523,0.002678,0.000431,0.170651
7229000,0.0324,0.013523,0.002678,0.000431,0.045483
7230000,0.0324,0.013523,0.002678,0.000431,0.149731
7231000,0.0324,0.013523,0.002678,0.000431,0.086383
7232000,0.0324,0.013523,0.002678,0.000431,0.100369
7233000,0.0324,0.013523,0.002678,0.000431,0.286416
7234000,0.0324,0.013523,0.002678,0.000431,0.080037
7235000,0.0324,0.013523,0.002678,0.000431,0.080154
7236000,0.0324,0.013523,0.002678,0.000431,0.035376
7237000,0.0324,0.013523,0.002678,0.000431,0.151846
7238000,0.0324,0.013523,0.002678,0.000431,0.050185
7239000,0.0324,0.013523,0.002678,0.000431,0.103425
7240000,0.0324,0.013523,0.002678,0.000431,0.199563
7241000,0.0324,0.013523,0.002678,0.000431,0.055121
7242000,0.0324,0.013523,0.002678,0.000431,0.068872
7243000,0.0324,0.013523,0.002678,0.000431,0.184754
7244000,0.0324,0.013523,0.002678,0.000431,0.167595
7245000,0.0324,0.013523,0.002678,0.000431,0.045483
7246000,0.0324,0.013523,0.002678,0.000431,0.123052
7247000,0.0324,0.013523,0.002678,0.000431,0.057824
7248000,0.0324,0.013523,0.002678,0.000431,0.087323
7249000,0.0324,0.013523,0.002678,0.000431,0.095550
7250000,0.0324,0.013523,0.002678,0.000431,0.155020
7251000,0.0324,0.013523,0.002678,0.000431,0.173942
7252000,0.0324,0.013523,0.002678,0.000431,0.107773
7253000,0.0324,0.013523,0.002678,0.000431,0.050537
7254000,0.0324,0.013523,0.002678,0.000431,0.095550
7255000,0.0324,0.013523,0.002678,0.000431,0.097431
7256000,0.0324,0.013523,0.002678,0.000431,0.136920
7257000,0.0324,0.013523,0.002678,0.000431,0.170886
7258000,0.0324,0.013523,0.002678,0.000431,0.145735
7259000,0.0324,0.013523,0.002678,0.000431,0.241638
7260000,0.0324,0.013523,0.002678,0.000431,0.069342
7261000,0.0324,0.013523,0.002678,0.000431,0.066168
7262000,0.0324,0.013523,0.002678,0.000431,0.163599
7263000,0.0324,0.013523,0.002678,0.000431,0.179818
7264000,0.0324,0.013523,0.002678,0.000431,0.093552
7265000,0.0324,0.013523,0.002678,0.000431,0.138918
7266000,0.0324,0.013523,0.002678,0.000431,0.076276
7267000,0.0324,0.013523,0.002678,0.000431,0.133159
7268000,0.0324,0.013523,0.002678,0.000431,0.149848
7269000,0.0324,0.013523,0.002678,0.000431,0.154902
7270000,0.0324,0.013523,0.002678,0.000431,0.098136
7271000,0.0324,0.013523,0.002678,0.000431,0.105540
7272000,0.0324,0.013523,0.002678,0.000431,0.059234
7273000,0.0324,0.013523,0.002678,0.000431,0.035376
7274000,0.0324,0.013523,0.002678,0.000431,0.110359
7275000,0.0324,0.013523,0.002678,0.000431,0.117646
7276000,0.0324,0.013523,0.002678,0.000431,0.170533
7277000,0.0324,0.013523,0.002678,0.000431,0.154079
7278000,0.0324,0.013523,0.002678,0.000431,0.166302
7279000,0.0324,0.013523,0.002678,0.000431,0.078626
7280000,0.0324,0.013523,0.002678,0.000431,0.074160
7281000,0.0324,0.013523,0.002678,0.000431,0.165010
7282000,0.0324,0.013523,0.002678,0.000431,0.278424
7283000,0.0324,0.013523,0.002678,0.000431,0.060292
7284000,0.0324,0.013523,0.002678,0.000431,0.155255
7285000,0.0324,0.013523,0.002678,0.000431,0.245634
7286000,0.0324,0.013523,0.002678,0.000431,0.202148
7287000,0.0324,0.013523,0.002678,0.000431,0.076511
7288000,0.0324,0.013523,0.002678,0.000431,0.110947
7289000,0.0324,0.013523,0.002678,0.000431,0.173001
7290000,0.0324,0.013523,0.002678,0.000431,0.099429
7291000,0.0324,0.013523,0.002678,0.000431,0.106951
7292000,0.0324,0.013523,0.002678,0.000431,0.089086
7293000,0.0324,0.013523,0.002678,0.000431,0.204969
7294000,0.0324,0.013523,0.002678,0.000431,0.191218
7295000,0.0324,0.013523,0.002678,0.000431,0.099781
7296000,0.0324,0.013523,0.002678,0.000431,0.079096
7297000,0.0324,0.013523,0.002678,0.000431,0.156195
7298000,0.0324,0.013523,0.002678,0.000431,0.128106
7299000,0.0324,0.013523,0.002678,0.000431,0.127518
7300000,0.0324,0.013523,0.002678,0.000431,0.139271
7301000,0.0324,0.013523,0.002678,0.000431,0.156900
7302000,0.0324,0.013523,0.002678,0.000431,0.249630
7303000,0.0324,0.013523,0.002678,0.000431,0.121289
7304000,0.0324,0.013523,0.002678,0.000431,0.137038
7305000,0.0324,0.013523,0.002678,0.000431,0.057706
7306000,0.0324,0.013523,0.002678,0.000431,0.186282
7307000,0.0324,0.013523,0.002678,0.000431,0.200621
7308000,0.0324,0.013523,0.002678,0.000431,0.131984
7309000,0.0324,0.013523,0.002678,0.000431,0.084503
7310000,0.0324,0.013523,0.002678,0.000431,0.167830
7311000,0.0324,0.013523,0.002678,0.000431,0.123287
7312000,0.0324,0.013523,0.002678,0.000431,0.214254
7313000,0.0324,0.013523,0.002678,0.000431,0.101662
7314000,0.0324,0.013523,0.002678,0.000431,0.145500
7315000,0.0324,0.013523,0.002678,0.000431,0.080154
7316000,0.0324,0.013523,0.002678,0.000431,0.151964
7317000,0.0324,0.013523,0.002678,0.000431,0.185695
7318000,0.0324,0.013523,0.002678,0.000431,0.147498
7319000,0.0324,0.013523,0.002678,0.000431,0.122934
7320000,0.0324,0.013523,0.002678,0.000431,0.125755
7321000,0.0324,0.013523,0.002678,0.000431,0.184754
7322000,0.0324,0.013523,0.002678,0.000431,0.144560
7323000,0.0324,0.013523,0.002678,0.000431,0.085561
7324000,0.0324,0.013523,0.002678,0.000431,0.244576
7325000,0.0324,0.013523,0.002678,0.000431,0.075453
7326000,0.0324,0.013523,0.002678,0.000431,0.170533
7327000,0.0324,0.013523,0.002678,0.000431,0.118821
7328000,0.0324,0.013523,0.002678,0.000431,0.057824
7329000,0.0324,0.013523,0.002678,0.000431,0.105775
7330000,0.0324,0.013523,0.002678,0.000431,0.088969
7331000,0.0324,0.013523,0.002678,0.000431,0.213666
7332000,0.0324,0.013523,0.002678,0.000431,0.111064
7333000,0.0324,0.013523,0.002678,0.000431,0.141857
7334000,0.0324,0.013523,0.002678,0.000431,0.097783
7335000,0.0324,0.013523,0.002678,0.000431,0.200621
7336000,0.0324,0.013523,0.002678,0.000431,0.133982
7337000,0.0324,0.013523,0.002678,0.000431,0.094728
7338000,0.0324,0.013523,0.002678,0.000431,0.156665
7339000,0.0324,0.013523,0.002678,0.000431,0.198035
7340000,0.0324,0.013523,0.002678,0.000431,0.123992
7341000,0.0324,0.013523,0.002678,0.000431,0.046189
7342000,0.0324,0.013523,0.002678,0.000431,0.177585
7343000,0.0324,0.013523,0.002678,0.000431,0.132807
7344000,0.0324,0.013523,0.002678,0.000431,0.098019
7345000,0.0324,0.013523,0.002678,0.000431,0.127753
7346000,0.0324,0.013523,0.002678,0.000431,0.188045
7347000,0.0324,0.013523,0.002678,0.000431,0.117528
7348000,0.0324,0.013523,0.002678,0.000431,0.164304
7349000,0.0324,0.013523,0.002678,0.000431,0.217192
7350000,0.0324,0.013523,0.002678,0.000431,0.147968
7351000,0.0324,0.013523,0.002678,0.000431,0.162071
7352000,0.0324,0.013523,0.002678,0.000431,0.108008
7353000,0.0324,0.013523,0.002678,0.000431,0.178408
7354000,0.0324,0.013523,0.002678,0.000431,0.056178
7355000,0.0324,0.013523,0.002678,0.000431,0.138683
7356000,0.0324,0.013523,0.002678,0.000431,0.104130
7357000,0.0324,0.013523,0.002678,0.000431,0.138213
7358000,0.0324,0.013523,0.002678,0.000431,0.138801
7359000,0.0324,0.013523,0.002678,0.000431,0.101897
7360000,0.0324,0.013523,0.002678,0.000431,0.204734
7361000,0.0324,0.013523,0.002678,0.000431,0.264203
7362000,0.0324,0.013523,0.002678,0.000431,0.252921
7363000,0.0324,0.013523,0.002678,0.000431,0.133394
7364000,0.0324,0.013523,0.002678,0.000431,0.130221
7365000,0.0324,0.013523,0.002678,0.000431,0.222246
7366000,0.0324,0.013523,0.002678,0.000431,0.121994
7367000,0.0324,0.013523,0.002678,0.000431,0.092612
7368000,0.0324,0.013523,0.002678,0.000431,0.071692
7369000,0.0324,0.013523,0.002678,0.000431,0.083915
7370000,0.0324,0.013523,0.002678,0.000431,0.122347
7371000,0.0324,0.013523,0.002678,0.000431,0.091202
7372000,0.0324,0.013523,0.002678,0.000431,0.084150
7373000,0.0324,0.013523,0.002678,0.000431,0.189455
7374000,0.0324,0.013523,0.002678,0.000431,0.126930
7375000,0.0324,0.013523,0.002678,0.000431,0.210375
7376000,0.0324,0.013523,0.002678,0.000431,0.122934
7377000,0.0324,0.013523,0.002678,0.000431,0.068401
7378000,0.0324,0.013523,0.002678,0.000431,0.260913
7379000,0.0324,0.013523,0.002678,0.000431,0.222716
7380000,0.0324,0.013523,0.002678,0.000431,0.222481
7381000,0.0324,0.013523,0.002678,0.000431,0.262675
7382000,0.0324,0.013523,0.002678,0.000431,0.088616
7383000,0.0324,0.013523,0.002678,0.000431,0.136803
7384000,0.0324,0.013523,0.002678,0.000431,0.144442
7385000,0.0324,0.013523,0.002678,0.000431,0.146793
7386000,0.0324,0.013523,0.002678,0.000431,0.164892
7387000,0.0324,0.013523,0.002678,0.000431,0.137861
7388000,0.0324,0.013523,0.002678,0.000431,0.165127
7389000,0.0324,0.013523,0.002678,0.000431,0.153022
7390000,0.0324,0.013523,0.002678,0.000431,0.255506
7391000,0.0324,0.013523,0.002678,0.000431,0.133630
7392000,0.0324,0.013523,0.002678,0.000431,0.193334
7393000,0.0324,0.013523,0.002678,0.000431,0.215664
7394000,0.0324,0.013523,0.002678,0.000431,0.140564
7395000,0.0324,0.013523,0.002678,0.000431,0.036904
7396000,0.0324,0.013523,0.002678,0.000431,0.344828
7397000,0.0324,0.013523,0.002678,0.000431,0.265496
7398000,0.0324,0.013523,0.002678,0.000431,0.151024
7399000,0.0324,0.013523,0.002678,0.000431,0.177585
7400000,0.0324,0.013523,0.002678,0.000431,0.183579
7401000,0.0324,0.013523,0.002678,0.000431,0.358343
7402000,0.0324,0.013523,0.002678,0.000431,0.115530
7403000,0.0324,0.013523,0.002678,0.000431,0.178290
7404000,0.0324,0.013523,0.002678,0.000431,0.268787
7405000,0.0324,0.013523,0.002678,0.000431,0.104600
7406000,0.0324,0.013523,0.002678,0.000431,0.111652
7407000,0.0324,0.013523,0.002678,0.000431,0.065346
7408000,0.0324,0.013523,0.002678,0.000431,0.042545
7409000,0.0324,0.013523,0.002678,0.000431,0.344828
7410000,0.0324,0.013523,0.002678,0.000431,0.124697
7411000,0.0324,0.013523,0.002678,0.000431,0.104012
7412000,0.0324,0.013523,0.002678,0.000431,0.155490
7413000,0.0324,0.013523,0.002678,0.000431,0.133630
7414000,0.0324,0.013523,0.002678,0.000431,0.079919
7415000,0.0324,0.013523,0.002678,0.000431,0.076393
7416000,0.0324,0.013523,0.002678,0.000431,0.246104
7417000,0.0324,0.013523,0.002678,0.000431,0.245751
7418000,0.0324,0.013523,0.002678,0.000431,0.070399
7419000,0.0324,0.013523,0.002678,0.000431,0.112945
7420000,0.0324,0.013523,0.002678,0.000431,0.140094
7421000,0.0324,0.013523,0.002678,0.000431,0.076393
7422000,0.0324,0.013523,0.002678,0.000431,0.232001
7423000,0.0324,0.013523,0.002678,0.000431,0.280775
7424000,0.0324,0.013523,0.002678,0.000431,0.089792
7425000,0.0324,0.013523,0.002678,0.000431,0.259032
7426000,0.0324,0.013523,0.002678,0.000431,0.357638
7427000,0.0324,0.013523,0.002678,0.000431,0.235291
7428000,0.0324,0.013523,0.002678,0.000431,0.119996
7429000,0.0324,0.013523,0.002678,0.000431,0.108831
7430000,0.0324,0.013523,0.002678,0.000431,0.136333
7431000,0.0324,0.013523,0.002678,0.000431,0.172414
7432000,0.0324,0.013523,0.002678,0.000431,0.226829
7433000,0.0324,0.013523,0.002678,0.000431,0.169358
7434000,0.0324,0.013523,0.002678,0.000431,0.164892
7435000,0.0324,0.013523,0.002678,0.000431,0.091672
7436000,0.0324,0.013523,0.002678,0.000431,0.114472
7437000,0.0324,0.013523,0.002678,0.000431,0.100487
7438000,0.0324,0.013523,0.002678,0.000431,0.125285
7439000,0.0324,0.013523,0.002678,0.000431,0.051242
7440000,0.0324,0.013523,0.002678,0.000431,0.116941
7441000,0.0324,0.013523,0.002678,0.000431,0.125403
7442000,0.0324,0.013523,0.002678,0.000431,0.159956
7443000,0.0324,0.013523,0.002678,0.000431,0.256917
7444000,0.0324,0.013523,0.002678,0.000431,0.078156
7445000,0.0324,0.013523,0.002678,0.000431,0.180288
7446000,0.0324,0.013523,0.002678,0.000431,0.193099
7447000,0.0324,0.013523,0.002678,0.000431,0.216487
7448000,0.0324,0.013523,0.002678,0.000431,0.089674
7449000,0.0324,0.013523,0.002678,0.000431,0.318501
7450000,0.0324,0.013523,0.002678,0.000431,0.170063
7451000,0.0324,0.013523,0.002678,0.000431,0.157018
7452000,0.0324,0.013523,0.002678,0.000431,0.136215
7453000,0.0324,0.013523,0.002678,0.000431,0.201796
7454000,0.0324,0.013523,0.002678,0.000431,0.324025
7455000,0.0324,0.013523,0.002678,0.000431,0.163834
7456000,0.0324,0.013523,0.002678,0.000431,0.094375
7457000,0.0324,0.013523,0.002678,0.000431,0.264438
7458000,0.0324,0.013523,0.002678,0.000431,0.204264
7459000,0.0324,0.013523,0.002678,0.000431,0.095785
7460000,0.0324,0.013523,0.002678,0.000431,0.068989
7461000,0.0324,0.013523,0.002678,0.000431,0.129281
7462000,0.0324,0.013523,0.002678,0.000431,0.253156
7463000,0.0324,0.013523,0.002678,0.000431,0.095315
7464000,0.0324,0.013523,0.002678,0.000431,0.270315
7465000,0.0324,0.013523,0.002678,0.000431,0.181464
7466000,0.0324,0.013523,0.002678,0.000431,0.080272
7467000,0.0324,0.013523,0.002678,0.000431,0.233411
7468000,0.0324,0.013523,0.002678,0.000431,0.234116
7469000,0.0324,0.013523,0.002678,0.000431,0.136333
7470000,0.0324,0.013523,0.002678,0.000431,0.044426
7471000,0.0324,0.013523,0.002678,0.000431,0.286886
7472000,0.0324,0.013523,0.002678,0.000431,0.110476
7473000,0.0324,0.013523,0.002678,0.000431,0.148791
7474000,0.0324,0.013523,0.002678,0.000431,0.226124
7475000,0.0324,0.013523,0.002678,0.000431,0.085796
7476000,0.0324,0.013523,0.002678,0.000431,0.118468
7477000,0.0324,0.013523,0.002678,0.000431,0.231295
7478000,0.0324,0.013523,0.002678,0.000431,0.226594
7479000,0.0324,0.013523,0.002678,0.000431,0.122112
7480000,0.0324,0.013523,0.002678,0.000431,0.230473
7481000,0.0324,0.013523,0.002678,0.000431,0.126108
7482000,0.0324,0.013523,0.002678,0.000431,0.205087
7483000,0.0324,0.013523,0.002678,0.000431,0.231295
7484000,0.0324,0.013523,0.002678,0.000431,0.304868
7485000,0.0324,0.013523,0.002678,0.000431,0.050067
7486000,0.0324,0.013523,0.002678,0.000431,0.102955
7487000,0.0324,0.013523,0.002678,0.000431,0.393132
7488000,0.0324,0.013523,0.002678,0.000431,0.206967
7489000,0.0324,0.013523,0.002678,0.000431,0.179466
7490000,0.0324,0.013523,0.002678,0.000431,0.174294
7491000,0.0324,0.013523,0.002678,0.000431,0.220953
7492000,0.0324,0.013523,0.002678,0.000431,0.294643
7493000,0.0324,0.013523,0.002678,0.000431,0.249042
7494000,0.0324,0.013523,0.002678,0.000431,0.170651
7495000,0.0324,0.013523,0.002678,0.000431,0.180171
7496000,0.0324,0.013523,0.002678,0.000431,0.233528
7497000,0.0324,0.013523,0.002678,0.000431,0.239640
7498000,0.0324,0.013523,0.002678,0.000431,0.085561
7499000,0.0324,0.013523,0.002678,0.000431,0.137155
7500000,0.0324,0.013523,0.002678,0.000431,0.118233
7501000,0.0324,0.013523,0.002678,0.000431,0.143267
7502000,0.0324,0.013523,0.002678,0.000431,0.054886
7503000,0.0324,0.013523,0.002678,0.000431,0.107068
7504000,0.0324,0.013523,0.002678,0.000431,0.340714
7505000,0.0324,0.013523,0.002678,0.000431,0.284066
7506000,0.0324,0.013523,0.002678,0.000431,0.256799
7507000,0.0324,0.013523,0.002678,0.000431,0.112357
7508000,0.0324,0.013523,0.002678,0.000431,0.145970
7509000,0.0324,0.013523,0.002678,0.000431,0.052065
7510000,0.0324,0.013523,0.002678,0.000431,0.180053
7511000,0.0324,0.013523,0.002678,0.000431,0.223539
7512000,0.0324,0.013523,0.002678,0.000431,0.200268
7513000,0.0324,0.013523,0.002678,0.000431,0.297346
7514000,0.0324,0.013523,0.002678,0.000431,0.151611
7515000,0.0324,0.013523,0.002678,0.000431,0.038667
7516000,0.0324,0.013523,0.002678,0.000431,0.078039
7517000,0.0324,0.013523,0.002678,0.000431,0.153609
7518000,0.0324,0.013523,0.002678,0.000431,0.176880
7519000,0.0324,0.013523,0.002678,0.000431,0.100487
7520000,0.0324,0.013523,0.002678,0.000431,0.131632
7521000,0.0324,0.013523,0.002678,0.000431,0.172884
7522000,0.0324,0.013523,0.002678,0.000431,0.080154
7523000,0.0324,0.013523,0.002678,0.000431,0.102485
7524000,0.0324,0.013523,0.002678,0.000431,0.284418
7525000,0.0324,0.013523,0.002678,0.000431,0.107068
7526000,0.0324,0.013523,0.002678,0.000431,0.106245
7527000,0.0324,0.013523,0.002678,0.000431,0.102602
7528000,0.0324,0.013523,0.002678,0.000431,0.056766
7529000,0.0324,0.013523,0.002678,0.000431,0.182874
7530000,0.0324,0.013523,0.002678,0.000431,0.204029
7531000,0.0324,0.013523,0.002678,0.000431,0.211081
7532000,0.0324,0.013523,0.002678,0.000431,0.087206
7533000,0.0324,0.013523,0.002678,0.000431,0.196155
7534000,0.0324,0.013523,0.002678,0.000431,0.061585
7535000,0.0324,0.013523,0.002678,0.000431,0.156783
7536000,0.0324,0.013523,0.002678,0.000431,0.104718
7537000,0.0324,0.013523,0.002678,0.000431,0.084150
7538000,0.0324,0.013523,0.002678,0.000431,0.104483
7539000,0.0324,0.013523,0.002678,0.000431,0.190631
7540000,0.0324,0.013523,0.002678,0.000431,0.190631
7541000,0.0324,0.013523,0.002678,0.000431,0.121524
7542000,0.0324,0.013523,0.002678,0.000431,0.337776
7543000,0.0324,0.013523,0.002678,0.000431,0.204146
7544000,0.0324,0.013523,0.002678,0.000431,0.211081
7545000,0.0324,0.013523,0.002678,0.000431,0.287709
7546000,0.0324,0.013523,0.002678,0.000431,0.163247
7547000,0.0324,0.013523,0.002678,0.000431,0.099429
7548000,0.0324,0.013523,0.002678,0.000431,0.218720
7549000,0.0324,0.013523,0.002678,0.000431,0.090614
7550000,0.0324,0.013523,0.002678,0.000431,0.211551
7551000,0.0324,0.013523,0.002678,0.000431,0.241991
7552000,0.0324,0.013523,0.002678,0.000431,0.448370
7553000,0.0324,0.013523,0.002678,0.000431,0.096021
7554000,0.0324,0.013523,0.002678,0.000431,0.187340
7555000,0.0324,0.013523,0.002678,0.000431,0.256564
7556000,0.0324,0.013523,0.002678,0.000431,0.255271
7557000,0.0324,0.013523,0.002678,0.000431,0.159603
7558000,0.0324,0.013523,0.002678,0.000431,0.140681
7559000,0.0324,0.013523,0.002678,0.000431,0.226947
7560000,0.0324,0.013523,0.002678,0.000431,0.112004
7561000,0.0324,0.013523,0.002678,0.000431,0.304516
7562000,0.0324,0.013523,0.002678,0.000431,0.274311
7563000,0.0324,0.013523,0.002678,0.000431,0.188045
7564000,0.0324,0.013523,0.002678,0.000431,0.076746
7565000,0.0324,0.013523,0.002678,0.000431,0.210258
7566000,0.0324,0.013523,0.002678,0.000431,0.146440
7567000,0.0324,0.013523,0.002678,0.000431,0.084973
7568000,0.0324,0.013523,0.002678,0.000431,0.233293
7569000,0.0324,0.013523,0.002678,0.000431,0.246457
7570000,0.0324,0.013523,0.002678,0.000431,0.373505
7571000,0.0324,0.013523,0.002678,0.000431,0.111064
7572000,0.0324,0.013523,0.002678,0.000431,0.071692
7573000,0.0324,0.013523,0.002678,0.000431,0.065228
7574000,0.0324,0.013523,0.002678,0.000431,0.129399
7575000,0.0324,0.013523,0.002678,0.000431,0.136568
7576000,0.0324,0.013523,0.002678,0.000431,0.147145
7577000,0.0324,0.013523,0.002678,0.000431,0.246222
7578000,0.0324,0.013523,0.002678,0.000431,0.223186
7579000,0.0324,0.013523,0.002678,0.000431,0.256564
7580000,0.0324,0.013523,0.002678,0.000431,0.095785
7581000,0.0324,0.013523,0.002678,0.000431,0.140916
7582000,0.0324,0.013523,0.002678,0.000431,0.213784
7583000,0.0324,0.013523,0.002678,0.000431,0.311802
7584000,0.0324,0.013523,0.002678,0.000431,0.257974
7585000,0.0324,0.013523,0.002678,0.000431,0.180406
7586000,0.0324,0.013523,0.002678,0.000431,0.072750
7587000,0.0324,0.013523,0.002678,0.000431,0.169006
7588000,0.0324,0.013523,0.002678,0.000431,0.307454
7589000,0.0324,0.013523,0.002678,0.000431,0.269492
7590000,0.0324,0.013523,0.002678,0.000431,0.238817
7591000,0.0324,0.013523,0.002678,0.000431,0.146793
7592000,0.0324,0.013523,0.002678,0.000431,0.050537
7593000,0.0324,0.013523,0.002678,0.000431,0.072397
7594000,0.0324,0.013523,0.002678,0.000431,0.085443
7595000,0.0324,0.013523,0.002678,0.000431,0.364220
7596000,0.0324,0.013523,0.002678,0.000431,0.079919
7597000,0.0324,0.013523,0.002678,0.000431,0.117998
7598000,0.0324,0.013523,0.002678,0.000431,0.072750
7599000,0.0324,0.013523,0.002678,0.000431,0.200033
7600000,0.0324,0.013523,0.002678,0.000431,0.175470
7601000,0.0324,0.013523,0.002678,0.000431,0.208025
7602000,0.0324,0.013523,0.002678,0.000431,0.161131
7603000,0.0324,0.013523,0.002678,0.000431,0.064053
7604000,0.0324,0.013523,0.002678,0.000431,0.136920
7605000,0.0324,0.013523,0.002678,0.000431,0.171121
7606000,0.0324,0.013523,0.002678,0.000431,0.109536
7607000,0.0324,0.013523,0.002678,0.000431,0.288884
7608000,0.0324,0.013523,0.002678,0.000431,0.352114
7609000,0.0324,0.013523,0.002678,0.000431,0.131044
7610000,0.0324,0.013523,0.002678,0.000431,0.093552
7611000,0.0324,0.013523,0.002678,0.000431,0.166655
7612000,0.0324,0.013523,0.002678,0.000431,0.188633
7613000,0.0324,0.013523,0.002678,0.000431,0.064641
7614000,0.0324,0.013523,0.002678,0.000431,0.185695
7615000,0.0324,0.013523,0.002678,0.000431,0.204617
7616000,0.0324,0.013523,0.002678,0.000431,0.066756
7617000,0.0324,0.013523,0.002678,0.000431,0.145735
7618000,0.0324,0.013523,0.002678,0.000431,0.062290
7619000,0.0324,0.013523,0.002678,0.000431,0.178760
7620000,0.0324,0.013523,0.002678,0.000431,0.085325
7621000,0.0324,0.013523,0.002678,0.000431,0.218250
7622000,0.0324,0.013523,0.002678,0.000431,0.072750
7623000,0.0324,0.013523,0.002678,0.000431,0.116823
7624000,0.0324,0.013523,0.002678,0.000431,0.179466
7625000,0.0324,0.013523,0.002678,0.000431,0.106951
7626000,0.0324,0.013523,0.002678,0.000431,0.091319
7627000,0.0324,0.013523,0.002678,0.000431,0.192746
7628000,0.0324,0.013523,0.002678,0.000431,0.184284
7629000,0.0324,0.013523,0.002678,0.000431,0.082975
7630000,0.0324,0.013523,0.002678,0.000431,0.344828
7631000,0.0324,0.013523,0.002678,0.000431,0.206144
7632000,0.0324,0.013523,0.002678,0.000431,0.228592
7633000,0.0324,0.013523,0.002678,0.000431,0.218485
7634000,0.0324,0.013523,0.002678,0.000431,0.190631
7635000,0.0324,0.013523,0.002678,0.000431,0.139271
7636000,0.0324,0.013523,0.002678,0.000431,0.100016
7637000,0.0324,0.013523,0.002678,0.000431,0.256094
7638000,0.0324,0.013523,0.002678,0.000431,0.088264
7639000,0.0324,0.013523,0.002678,0.000431,0.100839
7640000,0.0324,0.013523,0.002678,0.000431,0.278894
7641000,0.0324,0.013523,0.002678,0.000431,0.177468
7642000,0.0324,0.013523,0.002678,0.000431,0.042780
7643000,0.0324,0.013523,0.002678,0.000431,0.283713
7644000,0.0324,0.013523,0.002678,0.000431,0.186282
7645000,0.0324,0.013523,0.002678,0.000431,0.172649
7646000,0.0324,0.013523,0.002678,0.000431,0.188868
7647000,0.0324,0.013523,0.002678,0.000431,0.302870
7648000,0.0324,0.013523,0.002678,0.000431,0.184049
7649000,0.0324,0.013523,0.002678,0.000431,0.170416
7650000,0.0324,0.013523,0.002678,0.000431,0.133277
7651000,0.0324,0.013523,0.002678,0.000431,0.042898
7652000,0.0324,0.013523,0.002678,0.000431,0.190748
7653000,0.0324,0.013523,0.002678,0.000431,0.118116
7654000,0.0324,0.013523,0.002678,0.000431,0.295936
7655000,0.0324,0.013523,0.002678,0.000431,0.090849
7656000,0.0324,0.013523,0.002678,0.000431,0.135275
7657000,0.0324,0.013523,0.002678,0.000431,0.117763
7658000,0.0324,0.013523,0.002678,0.000431,0.223421
7659000,0.0324,0.013523,0.002678,0.000431,0.203559
7660000,0.0324,0.013523,0.002678,0.000431,0.419693
7661000,0.0324,0.013523,0.002678,0.000431,0.092495
7662000,0.0324,0.013523,0.002678,0.000431,0.213901
7663000,0.0324,0.013523,0.002678,0.000431,0.110829
7664000,0.0324,0.013523,0.002678,0.000431,0.177820
7665000,0.0324,0.013523,0.002678,0.000431,0.260442
7666000,0.0324,0.013523,0.002678,0.000431,0.042310
7667000,0.0324,0.013523,0.002678,0.000431,0.117998
7668000,0.0324,0.013523,0.002678,0.000431,0.118233
7669000,0.0324,0.013523,0.002678,0.000431,0.110476
7670000,0.0324,0.013523,0.002678,0.000431,0.042663
7671000,0.0324,0.013523,0.002678,0.000431,0.140681
7672000,0.0324,0.013523,0.002678,0.000431,0.117763
7673000,0.0324,0.013523,0.002678,0.000431,0.145500
7674000,0.0324,0.013523,0.002678,0.000431,0.063348
7675000,0.0324,0.013523,0.002678,0.000431,0.356463
7676000,0.0324,0.013523,0.002678,0.000431,0.207202
7677000,0.0324,0.013523,0.002678,0.000431,0.065698
7678000,0.0324,0.013523,0.002678,0.000431,0.144207
7679000,0.0324,0.013523,0.002678,0.000431,0.057589
7680000,0.0324,0.013523,0.002678,0.000431,0.187105
7681000,0.0324,0.013523,0.002678,0.000431,0.184519
7682000,0.0324,0.013523,0.002678,0.000431,0.099076
7683000,0.0324,0.013523,0.002678,0.000431,0.035023
7684000,0.0324,0.013523,0.002678,0.000431,0.242343
7685000,0.0324,0.013523,0.002678,0.000431,0.129046
7686000,0.0324,0.013523,0.002678,0.000431,0.103895
7687000,0.0324,0.013523,0.002678,0.000431,0.144207
7688000,0.0324,0.013523,0.002678,0.000431,0.192159
7689000,0.0324,0.013523,0.002678,0.000431,0.153022
7690000,0.0324,0.013523,0.002678,0.000431,0.059939
7691000,0.0324,0.013523,0.002678,0.000431,0.212138
7692000,0.0324,0.013523,0.002678,0.000431,0.352585
7693000,0.0324,0.013523,0.002678,0.000431,0.291587
7694000,0.0324,0.013523,0.002678,0.000431,0.257387
7695000,0.0324,0.013523,0.002678,0.000431,0.195567
7696000,0.0324,0.013523,0.002678,0.000431,0.125520
7697000,0.0324,0.013523,0.002678,0.000431,0.065228
7698000,0.0324,0.013523,0.002678,0.000431,0.075336
7699000,0.0324,0.013523,0.002678,0.000431,0.122582
7700000,0.0324,0.013523,0.002678,0.000431,0.131161
7701000,0.0324,0.013523,0.002678,0.000431,0.308276
7702000,0.0324,0.013523,0.002678,0.000431,0.196037
7703000,0.0324,0.013523,0.002678,0.000431,0.121759
7704000,0.0324,0.013523,0.002678,0.000431,0.057471
7705000,0.0324,0.013523,0.002678,0.000431,0.194509
7706000,0.0324,0.013523,0.002678,0.000431,0.153727
7707000,0.0324,0.013523,0.002678,0.000431,0.326258
7708000,0.0324,0.013523,0.002678,0.000431,0.213901
7709000,0.0324,0.013523,0.002678,0.000431,0.040077
7710000,0.0324,0.013523,0.002678,0.000431,0.065228
7711000,0.0324,0.013523,0.002678,0.000431,0.071457
7712000,0.0324,0.013523,0.002678,0.000431,0.275251
7713000,0.0324,0.013523,0.002678,0.000431,0.147028
7714000,0.0324,0.013523,0.002678,0.000431,0.354465
7715000,0.0324,0.013523,0.002678,0.000431,0.094375
7716000,0.0324,0.013523,0.002678,0.000431,0.110947
7717000,0.0324,0.013523,0.002678,0.000431,0.214254
7718000,0.0324,0.013523,0.002678,0.000431,0.376913
7719000,0.0324,0.013523,0.002678,0.000431,0.284888
7720000,0.0324,0.013523,0.002678,0.000431,0.129516
7721000,0.0324,0.013523,0.002678,0.000431,0.133159
7722000,0.0324,0.013523,0.002678,0.000431,0.128106
7723000,0.0324,0.013523,0.002678,0.000431,0.174999
7724000,0.0324,0.013523,0.002678,0.000431,0.158193
7725000,0.0324,0.013523,0.002678,0.000431,0.111417
7726000,0.0324,0.013523,0.002678,0.000431,0.082152
7727000,0.0324,0.013523,0.002678,0.000431,0.213901
7728000,0.0324,0.013523,0.002678,0.000431,0.076158
7729000,0.0324,0.013523,0.002678,0.000431,0.221188
7730000,0.0324,0.013523,0.002678,0.000431,0.086031
7731000,0.0324,0.013523,0.002678,0.000431,0.118351
7732000,0.0324,0.013523,0.002678,0.000431,0.106833
7733000,0.0324,0.013523,0.002678,0.000431,0.155960
7734000,0.0324,0.013523,0.002678,0.000431,0.200033
7735000,0.0324,0.013523,0.002678,0.000431,0.071105
7736000,0.0324,0.013523,0.002678,0.000431,0.149848
7737000,0.0324,0.013523,0.002678,0.000431,0.123405
7738000,0.0324,0.013523,0.002678,0.000431,0.166185
7739000,0.0324,0.013523,0.002678,0.000431,0.168300
7740000,0.0324,0.013523,0.002678,0.000431,0.113532
7741000,0.0324,0.013523,0.002678,0.000431,0.068754
7742000,0.0324,0.013523,0.002678,0.000431,0.088264
7743000,0.0324,0.013523,0.002678,0.000431,0.149496
7744000,0.0324,0.013523,0.002678,0.000431,0.254919
7745000,0.0324,0.013523,0.002678,0.000431,0.087206
7746000,0.0324,0.013523,0.002678,0.000431,0.156900
7747000,0.0324,0.013523,0.002678,0.000431,0.170533
7748000,0.0324,0.013523,0.002678,0.000431,0.125403
7749000,0.0324,0.013523,0.002678,0.000431,0.075218
7750000,0.0324,0.013523,0.002678,0.000431,0.158310
7751000,0.0324,0.013523,0.002678,0.000431,0.101897
7752000,0.0324,0.013523,0.002678,0.000431,0.156548
7753000,0.0324,0.013523,0.002678,0.000431,0.093787
7754000,0.0324,0.013523,0.002678,0.000431,0.042780
7755000,0.0324,0.013523,0.002678,0.000431,0.148086
7756000,0.0324,0.013523,0.002678,0.000431,0.098724
7757000,0.0324,0.013523,0.002678,0.000431,0.180758
7758000,0.0324,0.013523,0.002678,0.000431,0.071810
7759000,0.0324,0.013523,0.002678,0.000431,0.094610
7760000,0.0324,0.013523,0.002678,0.000431,0.105893
7761000,0.0324,0.013523,0.002678,0.000431,0.126695
7762000,0.0324,0.013523,0.002678,0.000431,0.165950
7763000,0.0324,0.013523,0.002678,0.000431,0.158310
7764000,0.0324,0.013523,0.002678,0.000431,0.047599
7765000,0.0324,0.013523,0.002678,0.000431,0.058999
7766000,0.0324,0.013523,0.002678,0.000431,0.165010
7767000,0.0324,0.013523,0.002678,0.000431,0.064523
7768000,0.0324,0.013523,0.002678,0.000431,0.102720
7769000,0.0324,0.013523,0.002678,0.000431,0.100487
7770000,0.0324,0.013523,0.002678,0.000431,0.100252
7771000,0.0324,0.013523,0.002678,0.000431,0.135980
7772000,0.0324,0.013523,0.002678,0.000431,0.174882
7773000,0.0324,0.013523,0.002678,0.000431,0.107538
7774000,0.0324,0.013523,0.002678,0.000431,0.177115
7775000,0.0324,0.013523,0.002678,0.000431,0.066638
7776000,0.0324,0.013523,0.002678,0.000431,0.150906
7777000,0.0324,0.013523,0.002678,0.000431,0.097196
7778000,0.0324,0.013523,0.002678,0.000431,0.192511
7779000,0.0324,0.013523,0.002678,0.000431,0.211316
7780000,0.0324,0.013523,0.002678,0.000431,0.052653
7781000,0.0324,0.013523,0.002678,0.000431,0.111182
7782000,0.0324,0.013523,0.002678,0.000431,0.066874
7783000,0.0324,0.013523,0.002678,0.000431,0.061820
7784000,0.0324,0.013523,0.002678,0.000431,0.131161
7785000,0.0324,0.013523,0.002678,0.000431,0.197447
7786000,0.0324,0.013523,0.002678,0.000431,0.159368
7787000,0.0324,0.013523,0.002678,0.000431,0.134922
7788000,0.0324,0.013523,0.002678,0.000431,0.046541
7789000,0.0324,0.013523,0.002678,0.000431,0.055121
7790000,0.0324,0.013523,0.002678,0.000431,0.071105
7791000,0.0324,0.013523,0.002678,0.000431,0.076393
7792000,0.0324,0.013523,0.002678,0.000431,0.109419
7793000,0.0324,0.013523,0.002678,0.000431,0.126813
7794000,0.0324,0.013523,0.002678,0.000431,0.169711
7795000,0.0324,0.013523,0.002678,0.000431,0.060762
7796000,0.0324,0.013523,0.002678,0.000431,0.115060
7797000,0.0324,0.013523,0.002678,0.000431,0.096843
7798000,0.0324,0.013523,0.002678,0.000431,0.171826
7799000,0.0324,0.013523,0.002678,0.000431,0.198153
7800000,0.0324,0.013523,0.002678,0.000431,0.107538
7801000,0.0324,0.013523,0.002678,0.000431,0.101779
7802000,0.0324,0.013523,0.002678,0.000431,0.137155
7803000,0.0324,0.013523,0.002678,0.000431,0.034906
7804000,0.0324,0.013523,0.002678,0.000431,0.051007
7805000,0.0324,0.013523,0.002678,0.000431,0.133159
7806000,0.0324,0.013523,0.002678,0.000431,0.184754
7807000,0.0324,0.013523,0.002678,0.000431,0.193922
7808000,0.0324,0.013523,0.002678,0.000431,0.130926
7809000,0.0324,0.013523,0.002678,0.000431,0.120114
7810000,0.0324,0.013523,0.002678,0.000431,0.142092
7811000,0.0324,0.013523,0.002678,0.000431,0.158428
7812000,0.0324,0.013523,0.002678,0.000431,0.096491
7813000,0.0324,0.013523,0.002678,0.000431,0.141739
7814000,0.0324,0.013523,0.002678,0.000431,0.043015
7815000,0.0324,0.013523,0.002678,0.000431,0.162894
7816000,0.0324,0.013523,0.002678,0.000431,0.039019
7817000,0.0324,0.013523,0.002678,0.000431,0.089086
7818000,0.0324,0.013523,0.002678,0.000431,0.064053
7819000,0.0324,0.013523,0.002678,0.000431,0.144325
7820000,0.0324,0.013523,0.002678,0.000431,0.086618
7821000,0.0324,0.013523,0.002678,0.000431,0.066756
7822000,0.0324,0.013523,0.002678,0.000431,0.057824
7823000,0.0324,0.013523,0.002678,0.000431,0.080977
7824000,0.0324,0.013523,0.002678,0.000431,0.058882
7825000,0.0324,0.013523,0.002678,0.000431,0.090262
7826000,0.0324,0.013523,0.002678,0.000431,0.203441
7827000,0.0324,0.013523,0.002678,0.000431,0.125755
7828000,0.0324,0.013523,0.002678,0.000431,0.067344
7829000,0.0324,0.013523,0.002678,0.000431,0.071457
7830000,0.0324,0.013523,0.002678,0.000431,0.102014
7831000,0.0324,0.013523,0.002678,0.000431,0.163599
7832000,0.0324,0.013523,0.002678,0.000431,0.050302
7833000,0.0324,0.013523,0.002678,0.000431,0.053593
7834000,0.0324,0.013523,0.002678,0.000431,0.168300
7835000,0.0324,0.013523,0.002678,0.000431,0.134687
7836000,0.0324,0.013523,0.002678,0.000431,0.049479
7837000,0.0324,0.013523,0.002678,0.000431,0.182639
7838000,0.0324,0.013523,0.002678,0.000431,0.133159
7839000,0.0324,0.013523,0.002678,0.000431,0.185930
7840000,0.0324,0.013523,0.002678,0.000431,0.077334
7841000,0.0324,0.013523,0.002678,0.000431,0.121289
7842000,0.0324,0.013523,0.002678,0.000431,0.060762
7843000,0.0324,0.013523,0.002678,0.000431,0.081094
7844000,0.0324,0.013523,0.002678,0.000431,0.136450
7845000,0.0324,0.013523,0.002678,0.000431,0.148673
7846000,0.0324,0.013523,0.002678,0.000431,0.102837
7847000,0.0324,0.013523,0.002678,0.000431,0.278777
7848000,0.0324,0.013523,0.002678,0.000431,0.093435
7849000,0.0324,0.013523,0.002678,0.000431,0.116235
7850000,0.0324,0.013523,0.002678,0.000431,0.110594
7851000,0.0324,0.013523,0.002678,0.000431,0.134335
7852000,0.0324,0.013523,0.002678,0.000431,0.169828
7853000,0.0324,0.013523,0.002678,0.000431,0.115178
7854000,0.0324,0.013523,0.002678,0.000431,0.055473
7855000,0.0324,0.013523,0.002678,0.000431,0.090614
7856000,0.0324,0.013523,0.002678,0.000431,0.082270
7857000,0.0324,0.013523,0.002678,0.000431,0.095433
7858000,0.0324,0.013523,0.002678,0.000431,0.125755
7859000,0.0324,0.013523,0.002678,0.000431,0.109419
7860000,0.0324,0.013523,0.002678,0.000431,0.215664
7861000,0.0324,0.013523,0.002678,0.000431,0.062525
7862000,0.0324,0.013523,0.002678,0.000431,0.068166
7863000,0.0324,0.013523,0.002678,0.000431,0.072867
7864000,0.0324,0.013523,0.002678,0.000431,0.112474
7865000,0.0324,0.013523,0.002678,0.000431,0.079096
7866000,0.0324,0.013523,0.002678,0.000431,0.179113
7867000,0.0324,0.013523,0.002678,0.000431,0.146558
7868000,0.0324,0.013523,0.002678,0.000431,0.046776
7869000,0.0324,0.013523,0.002678,0.000431,0.188515
7870000,0.0324,0.013523,0.002678,0.000431,0.060057
7871000,0.0324,0.013523,0.002678,0.000431,0.088969
7872000,0.0324,0.013523,0.002678,0.000431,0.155960
7873000,0.0324,0.013523,0.002678,0.000431,0.357051
7874000,0.0324,0.013523,0.002678,0.000431,0.067579
7875000,0.0324,0.013523,0.002678,0.000431,0.066403
7876000,0.0324,0.013523,0.002678,0.000431,0.068636
7877000,0.0324,0.013523,0.002678,0.000431,0.093082
7878000,0.0324,0.013523,0.002678,0.000431,0.049597
7879000,0.0324,0.013523,0.002678,0.000431,0.042780
7880000,0.0324,0.013523,0.002678,0.000431,0.035258
7881000,0.0324,0.013523,0.002678,0.000431,0.102955
7882000,0.0324,0.013523,0.002678,0.000431,0.058176
7883000,0.0324,0.013523,0.002678,0.000431,0.086853
7884000,0.0324,0.013523,0.002678,0.000431,0.104012
7885000,0.0324,0.013523,0.002678,0.000431,0.066521
7886000,0.0324,0.013523,0.002678,0.000431,0.179348
7887000,0.0324,0.013523,0.002678,0.000431,0.074278
7888000,0.0324,0.013523,0.002678,0.000431,0.122582
7889000,0.0324,0.013523,0.002678,0.000431,0.130339
7890000,0.0324,0.013523,0.002678,0.000431,0.082857
7891000,0.0324,0.013523,0.002678,0.000431,0.098841
7892000,0.0324,0.013523,0.002678,0.000431,0.102602
7893000,0.0324,0.013523,0.002678,0.000431,0.076158
7894000,0.0324,0.013523,0.002678,0.000431,0.088616
7895000,0.0324,0.013523,0.002678,0.000431,0.048069
7896000,0.0324,0.013523,0.002678,0.000431,0.106128
7897000,0.0324,0.013523,0.002678,0.000431,0.084150
7898000,0.0324,0.013523,0.002678,0.000431,0.103542
7899000,0.0324,0.013523,0.002678,0.000431,0.092377
7900000,0.0324,0.013523,0.002678,0.000431,0.079449
7901000,0.0324,0.013523,0.002678,0.000431,0.087441
7902000,0.0324,0.013523,0.002678,0.000431,0.060409
7903000,0.0324,0.013523,0.002678,0.000431,0.173354
7904000,0.0324,0.013523,0.002678,0.000431,0.075218
7905000,0.0324,0.013523,0.002678,0.000431,0.160661
7906000,0.0324,0.013523,0.002678,0.000431,0.083915
7907000,0.0324,0.013523,0.002678,0.000431,0.092847
7908000,0.0324,0.013523,0.002678,0.000431,0.096373
7909000,0.0324,0.013523,0.002678,0.000431,0.097078
7910000,0.0324,0.013523,0.002678,0.000431,0.188045
7911000,0.0324,0.013523,0.002678,0.000431,0.066403
7912000,0.0324,0.013523,0.002678,0.000431,0.059117
7913000,0.0324,0.013523,0.002678,0.000431,0.036199
7914000,0.0324,0.013523,0.002678,0.000431,0.119996
7915000,0.0324,0.013523,0.002678,0.000431,0.121289
7916000,0.0324,0.013523,0.002678,0.000431,0.183226
7917000,0.0324,0.013523,0.002678,0.000431,0.040195
7918000,0.0324,0.013523,0.002678,0.000431,0.124815
7919000,0.0324,0.013523,0.002678,0.000431,0.081212
7920000,0.0324,0.013523,0.002678,0.000431,0.129281
7921000,0.0324,0.013523,0.002678,0.000431,0.062995
7922000,0.0324,0.013523,0.002678,0.000431,0.059822
7923000,0.0324,0.013523,0.002678,0.000431,0.067579
7924000,0.0324,0.013523,0.002678,0.000431,0.045248
7925000,0.0324,0.013523,0.002678,0.000431,0.142209
7926000,0.0324,0.013523,0.002678,0.000431,0.214489
7927000,0.0324,0.013523,0.002678,0.000431,0.130221
7928000,0.0324,0.013523,0.002678,0.000431,0.097901
7929000,0.0324,0.013523,0.002678,0.000431,0.085090
7930000,0.0324,0.013523,0.002678,0.000431,0.043838
7931000,0.0324,0.013523,0.002678,0.000431,0.069342
7932000,0.0324,0.013523,0.002678,0.000431,0.081212
7933000,0.0324,0.013523,0.002678,0.000431,0.127753
7934000,0.0324,0.013523,0.002678,0.000431,0.075453
7935000,0.0324,0.013523,0.002678,0.000431,0.164892
7936000,0.0324,0.013523,0.002678,0.000431,0.104130
7937000,0.0324,0.013523,0.002678,0.000431,0.082152
7938000,0.0324,0.013523,0.002678,0.000431,0.093670
7939000,0.0324,0.013523,0.002678,0.000431,0.040077
7940000,0.0324,0.013523,0.002678,0.000431,0.092377
7941000,0.0324,0.013523,0.002678,0.000431,0.070164
7942000,0.0324,0.013523,0.002678,0.000431,0.131984
7943000,0.0324,0.013523,0.002678,0.000431,0.035729
7944000,0.0324,0.013523,0.002678,0.000431,0.231060
7945000,0.0324,0.013523,0.002678,0.000431,0.126578
7946000,0.0324,0.013523,0.002678,0.000431,0.060762
7947000,0.0324,0.013523,0.002678,0.000431,0.065346
7948000,0.0324,0.013523,0.002678,0.000431,0.065346
7949000,0.0324,0.013523,0.002678,0.000431,0.042780
7950000,0.0324,0.013523,0.002678,0.000431,0.051830
7951000,0.0324,0.013523,0.002678,0.000431,0.118821
7952000,0.0324,0.013523,0.002678,0.000431,0.066286
7953000,0.0324,0.013523,0.002678,0.000431,0.084385
7954000,0.0324,0.013523,0.002678,0.000431,0.110594
7955000,0.0324,0.013523,0.002678,0.000431,0.079096
7956000,0.0324,0.013523,0.002678,0.000431,0.122112
7957000,0.0324,0.013523,0.002678,0.000431,0.077569
7958000,0.0324,0.013523,0.002678,0.000431,0.055238
7959000,0.0324,0.013523,0.002678,0.000431,0.047599
7960000,0.0324,0.013523,0.002678,0.000431,0.054298
7961000,0.0324,0.013523,0.002678,0.000431,0.065346
7962000,0.0324,0.013523,0.002678,0.000431,0.039019
7963000,0.0324,0.013523,0.002678,0.000431,0.114120
7964000,0.0324,0.013523,0.002678,0.000431,0.061467
7965000,0.0324,0.013523,0.002678,0.000431,0.046541
7966000,0.0324,0.013523,0.002678,0.000431,0.114237
7967000,0.0324,0.013523,0.002678,0.000431,0.076511
7968000,0.0324,0.013523,0.002678,0.000431,0.064993
7969000,0.0324,0.013523,0.002678,0.000431,0.077569
7970000,0.0324,0.013523,0.002678,0.000431,0.086853
7971000,0.0324,0.013523,0.002678,0.000431,0.100369
7972000,0.0324,0.013523,0.002678,0.000431,0.096373
7973000,0.0324,0.013523,0.002678,0.000431,0.077804
7974000,0.0324,0.013523,0.002678,0.000431,0.126460
7975000,0.0324,0.013523,0.002678,0.000431,0.041958
7976000,0.0324,0.013523,0.002678,0.000431,0.114708
7977000,0.0324,0.013523,0.002678,0.000431,0.127636
7978000,0.0324,0.013523,0.002678,0.000431,0.043720
7979000,0.0324,0.013523,0.002678,0.000431,0.047364
7980000,0.0324,0.013523,0.002678,0.000431,0.126343
7981000,0.0324,0.013523,0.002678,0.000431,0.054416
7982000,0.0324,0.013523,0.002678,0.000431,0.044073
7983000,0.0324,0.013523,0.002678,0.000431,0.060527
7984000,0.0324,0.013523,0.002678,0.000431,0.073220
7985000,0.0324,0.013523,0.002678,0.000431,0.072867
7986000,0.0324,0.013523,0.002678,0.000431,0.081094
7987000,0.0324,0.013523,0.002678,0.000431,0.073808
7988000,0.0324,0.013523,0.002678,0.000431,0.189455
7989000,0.0324,0.013523,0.002678,0.000431,0.110124
7990000,0.0324,0.013523,0.002678,0.000431,0.083210
7991000,0.0324,0.013523,0.002678,0.000431,0.141151
7992000,0.0324,0.013523,0.002678,0.000431,0.035141
7993000,0.0324,0.013523,0.002678,0.000431,0.116823
7994000,0.0324,0.013523,0.002678,0.000431,0.067344
7995000,0.0324,0.013523,0.002678,0.000431,0.045483
7996000,0.0324,0.013523,0.002678,0.000431,0.080859
7997000,0.0324,0.013523,0.002678,0.000431,0.134452
7998000,0.0324,0.013523,0.002678,0.000431,0.057236
7999000,0.0324,0.013523,0.002678,0.000431,0.051242
