Cycle,Area(mm^2),PeakDynamic(W),SubthresholdLeakage(W),GateLeakage(W),RunTimeDynamic(W)
28000000,0.0324,0.013523,0.002678,0.000431,0.019745
28001000,0.0324,0.013523,0.002678,0.000431,0.072045
28002000,0.0324,0.013523,0.002678,0.000431,0.020097
28003000,0.0324,0.013523,0.002678,0.000431,0.004701
28004000,0.0324,0.013523,0.002678,0.000431,0.004701
28005000,0.0324,0.013523,0.002678,0.000431,0.004701
28006000,0.0324,0.013523,0.002678,0.000431,0.027267
28007000,0.0324,0.013523,0.002678,0.000431,0.049597
28008000,0.0324,0.013523,0.002678,0.000431,0.004701
28009000,0.0324,0.013523,0.002678,0.000431,0.004701
28010000,0.0324,0.013523,0.002678,0.000431,0.019745
28011000,0.0324,0.013523,0.002678,0.000431,0.004701
28012000,0.0324,0.013523,0.002678,0.000431,0.004701
28013000,0.0324,0.013523,0.002678,0.000431,0.004701
28014000,0.0324,0.013523,0.002678,0.000431,0.049832
28015000,0.0324,0.013523,0.002678,0.000431,0.004466
28016000,0.0324,0.013523,0.002678,0.000431,0.004701
28017000,0.0324,0.013523,0.002678,0.000431,0.004701
28018000,0.0324,0.013523,0.002678,0.000431,0.004701
28019000,0.0324,0.013523,0.002678,0.000431,0.004701
28020000,0.0324,0.013523,0.002678,0.000431,0.129281
28021000,0.0324,0.013523,0.002678,0.000431,0.165480
28022000,0.0324,0.013523,0.002678,0.000431,0.004701
28023000,0.0324,0.013523,0.002678,0.000431,0.027267
28024000,0.0324,0.013523,0.002678,0.000431,0.004701
28025000,0.0324,0.013523,0.002678,0.000431,0.004584
28026000,0.0324,0.013523,0.002678,0.000431,0.004584
28027000,0.0324,0.013523,0.002678,0.000431,0.065111
28028000,0.0324,0.013523,0.002678,0.000431,0.004701
28029000,0.0324,0.013523,0.002678,0.000431,0.042310
28030000,0.0324,0.013523,0.002678,0.000431,0.004701
28031000,0.0324,0.013523,0.002678,0.000431,0.004701
28032000,0.0324,0.013523,0.002678,0.000431,0.004466
28033000,0.0324,0.013523,0.002678,0.000431,0.057589
28034000,0.0324,0.013523,0.002678,0.000431,0.050302
28035000,0.0324,0.013523,0.002678,0.000431,0.004701
28036000,0.0324,0.013523,0.002678,0.000431,0.027267
28037000,0.0324,0.013523,0.002678,0.000431,0.004701
28038000,0.0324,0.013523,0.002678,0.000431,0.004701
28039000,0.0324,0.013523,0.002678,0.000431,0.004466
28040000,0.0324,0.013523,0.002678,0.000431,0.004701
28041000,0.0324,0.013523,0.002678,0.000431,0.004701
28042000,0.0324,0.013523,0.002678,0.000431,0.042545
28043000,0.0324,0.013523,0.002678,0.000431,0.019980
28044000,0.0324,0.013523,0.002678,0.000431,0.004701
28045000,0.0324,0.013523,0.002678,0.000431,0.004701
28046000,0.0324,0.013523,0.002678,0.000431,0.019745
28047000,0.0324,0.013523,0.002678,0.000431,0.012105
28048000,0.0324,0.013523,0.002678,0.000431,0.004584
28049000,0.0324,0.013523,0.002678,0.000431,0.004701
28050000,0.0324,0.013523,0.002678,0.000431,0.015984
28051000,0.0324,0.013523,0.002678,0.000431,0.008462
28052000,0.0324,0.013523,0.002678,0.000431,0.004701
28053000,0.0324,0.013523,0.002678,0.000431,0.012223
28054000,0.0324,0.013523,0.002678,0.000431,0.004701
28055000,0.0324,0.013523,0.002678,0.000431,0.004701
28056000,0.0324,0.013523,0.002678,0.000431,0.042310
28057000,0.0324,0.013523,0.002678,0.000431,0.004701
28058000,0.0324,0.013523,0.002678,0.000431,0.004701
28059000,0.0324,0.013523,0.002678,0.000431,0.042310
28060000,0.0324,0.013523,0.002678,0.000431,0.004701
28061000,0.0324,0.013523,0.002678,0.000431,0.004701
28062000,0.0324,0.013523,0.002678,0.000431,0.029147
28063000,0.0324,0.013523,0.002678,0.000431,0.047951
28064000,0.0324,0.013523,0.002678,0.000431,0.004701
28065000,0.0324,0.013523,0.002678,0.000431,0.036316
28066000,0.0324,0.013523,0.002678,0.000431,0.063113
28067000,0.0324,0.013523,0.002678,0.000431,0.004701
28068000,0.0324,0.013523,0.002678,0.000431,0.004701
28069000,0.0324,0.013523,0.002678,0.000431,0.072397
28070000,0.0324,0.013523,0.002678,0.000431,0.004701
28071000,0.0324,0.013523,0.002678,0.000431,0.004701
28072000,0.0324,0.013523,0.002678,0.000431,0.034788
28073000,0.0324,0.013523,0.002678,0.000431,0.004701
28074000,0.0324,0.013523,0.002678,0.000431,0.004701
28075000,0.0324,0.013523,0.002678,0.000431,0.004936
28076000,0.0324,0.013523,0.002678,0.000431,0.004701
28077000,0.0324,0.013523,0.002678,0.000431,0.004701
28078000,0.0324,0.013523,0.002678,0.000431,0.016807
28079000,0.0324,0.013523,0.002678,0.000431,0.023271
28080000,0.0324,0.013523,0.002678,0.000431,0.004584
28081000,0.0324,0.013523,0.002678,0.000431,0.004701
28082000,0.0324,0.013523,0.002678,0.000431,0.042310
28083000,0.0324,0.013523,0.002678,0.000431,0.004701
28084000,0.0324,0.013523,0.002678,0.000431,0.004701
28085000,0.0324,0.013523,0.002678,0.000431,0.058176
28086000,0.0324,0.013523,0.002678,0.000431,0.011400
28087000,0.0324,0.013523,0.002678,0.000431,0.004701
28088000,0.0324,0.013523,0.002678,0.000431,0.011635
28089000,0.0324,0.013523,0.002678,0.000431,0.012576
28090000,0.0324,0.013523,0.002678,0.000431,0.004701
28091000,0.0324,0.013523,0.002678,0.000431,0.027267
28092000,0.0324,0.013523,0.002678,0.000431,0.012223
28093000,0.0324,0.013523,0.002678,0.000431,0.004701
28094000,0.0324,0.013523,0.002678,0.000431,0.007757
28095000,0.0324,0.013523,0.002678,0.000431,0.009167
28096000,0.0324,0.013523,0.002678,0.000431,0.004701
28097000,0.0324,0.013523,0.002678,0.000431,0.004701
28098000,0.0324,0.013523,0.002678,0.000431,0.027267
28099000,0.0324,0.013523,0.002678,0.000431,0.004701
28100000,0.0324,0.013523,0.002678,0.000431,0.004584
28101000,0.0324,0.013523,0.002678,0.000431,0.012105
28102000,0.0324,0.013523,0.002678,0.000431,0.004701
28103000,0.0324,0.013523,0.002678,0.000431,0.004701
28104000,0.0324,0.013523,0.002678,0.000431,0.031498
28105000,0.0324,0.013523,0.002678,0.000431,0.045601
28106000,0.0324,0.013523,0.002678,0.000431,0.004701
28107000,0.0324,0.013523,0.002678,0.000431,0.004701
28108000,0.0324,0.013523,0.002678,0.000431,0.004701
28109000,0.0324,0.013523,0.002678,0.000431,0.004701
28110000,0.0324,0.013523,0.002678,0.000431,0.024446
28111000,0.0324,0.013523,0.002678,0.000431,0.135980
28112000,0.0324,0.013523,0.002678,0.000431,0.011165
28113000,0.0324,0.013523,0.002678,0.000431,0.004701
28114000,0.0324,0.013523,0.002678,0.000431,0.004701
28115000,0.0324,0.013523,0.002678,0.000431,0.004701
28116000,0.0324,0.013523,0.002678,0.000431,0.004701
28117000,0.0324,0.013523,0.002678,0.000431,0.019745
28118000,0.0324,0.013523,0.002678,0.000431,0.019745
28119000,0.0324,0.013523,0.002678,0.000431,0.004584
28120000,0.0324,0.013523,0.002678,0.000431,0.012105
28121000,0.0324,0.013523,0.002678,0.000431,0.004701
28122000,0.0324,0.013523,0.002678,0.000431,0.004701
28123000,0.0324,0.013523,0.002678,0.000431,0.027267
28124000,0.0324,0.013523,0.002678,0.000431,0.042310
28125000,0.0324,0.013523,0.002678,0.000431,0.004701
28126000,0.0324,0.013523,0.002678,0.000431,0.004701
28127000,0.0324,0.013523,0.002678,0.000431,0.027267
28128000,0.0324,0.013523,0.002678,0.000431,0.004466
28129000,0.0324,0.013523,0.002678,0.000431,0.004701
28130000,0.0324,0.013523,0.002678,0.000431,0.047951
28131000,0.0324,0.013523,0.002678,0.000431,0.036669
28132000,0.0324,0.013523,0.002678,0.000431,0.004701
28133000,0.0324,0.013523,0.002678,0.000431,0.042310
28134000,0.0324,0.013523,0.002678,0.000431,0.004701
28135000,0.0324,0.013523,0.002678,0.000431,0.004701
28136000,0.0324,0.013523,0.002678,0.000431,0.037021
28137000,0.0324,0.013523,0.002678,0.000431,0.021273
28138000,0.0324,0.013523,0.002678,0.000431,0.008462
28139000,0.0324,0.013523,0.002678,0.000431,0.005289
28140000,0.0324,0.013523,0.002678,0.000431,0.019040
28141000,0.0324,0.013523,0.002678,0.000431,0.004349
28142000,0.0324,0.013523,0.002678,0.000431,0.019392
28143000,0.0324,0.013523,0.002678,0.000431,0.050185
28144000,0.0324,0.013523,0.002678,0.000431,0.004701
28145000,0.0324,0.013523,0.002678,0.000431,0.004701
28146000,0.0324,0.013523,0.002678,0.000431,0.004701
28147000,0.0324,0.013523,0.002678,0.000431,0.004701
28148000,0.0324,0.013523,0.002678,0.000431,0.004701
28149000,0.0324,0.013523,0.002678,0.000431,0.109066
28150000,0.0324,0.013523,0.002678,0.000431,0.028207
28151000,0.0324,0.013523,0.002678,0.000431,0.004701
28152000,0.0324,0.013523,0.002678,0.000431,0.004701
28153000,0.0324,0.013523,0.002678,0.000431,0.004701
28154000,0.0324,0.013523,0.002678,0.000431,0.004701
28155000,0.0324,0.013523,0.002678,0.000431,0.034671
28156000,0.0324,0.013523,0.002678,0.000431,0.027384
28157000,0.0324,0.013523,0.002678,0.000431,0.004701
28158000,0.0324,0.013523,0.002678,0.000431,0.004701
28159000,0.0324,0.013523,0.002678,0.000431,0.049714
28160000,0.0324,0.013523,0.002678,0.000431,0.004584
28161000,0.0324,0.013523,0.002678,0.000431,0.004701
28162000,0.0324,0.013523,0.002678,0.000431,0.019745
28163000,0.0324,0.013523,0.002678,0.000431,0.004701
28164000,0.0324,0.013523,0.002678,0.000431,0.004701
28165000,0.0324,0.013523,0.002678,0.000431,0.017394
28166000,0.0324,0.013523,0.002678,0.000431,0.029617
28167000,0.0324,0.013523,0.002678,0.000431,0.004701
28168000,0.0324,0.013523,0.002678,0.000431,0.052418
28169000,0.0324,0.013523,0.002678,0.000431,0.054533
28170000,0.0324,0.013523,0.002678,0.000431,0.004701
28171000,0.0324,0.013523,0.002678,0.000431,0.004701
28172000,0.0324,0.013523,0.002678,0.000431,0.027267
28173000,0.0324,0.013523,0.002678,0.000431,0.004701
28174000,0.0324,0.013523,0.002678,0.000431,0.004701
28175000,0.0324,0.013523,0.002678,0.000431,0.022565
28176000,0.0324,0.013523,0.002678,0.000431,0.024681
28177000,0.0324,0.013523,0.002678,0.000431,0.004701
28178000,0.0324,0.013523,0.002678,0.000431,0.015984
28179000,0.0324,0.013523,0.002678,0.000431,0.008462
28180000,0.0324,0.013523,0.002678,0.000431,0.004584
28181000,0.0324,0.013523,0.002678,0.000431,0.033378
28182000,0.0324,0.013523,0.002678,0.000431,0.028324
28183000,0.0324,0.013523,0.002678,0.000431,0.004701
28184000,0.0324,0.013523,0.002678,0.000431,0.004701
28185000,0.0324,0.013523,0.002678,0.000431,0.012223
28186000,0.0324,0.013523,0.002678,0.000431,0.004701
28187000,0.0324,0.013523,0.002678,0.000431,0.008462
28188000,0.0324,0.013523,0.002678,0.000431,0.076276
28189000,0.0324,0.013523,0.002678,0.000431,0.012340
28190000,0.0324,0.013523,0.002678,0.000431,0.004701
28191000,0.0324,0.013523,0.002678,0.000431,0.033496
28192000,0.0324,0.013523,0.002678,0.000431,0.005994
28193000,0.0324,0.013523,0.002678,0.000431,0.004701
28194000,0.0324,0.013523,0.002678,0.000431,0.027502
28195000,0.0324,0.013523,0.002678,0.000431,0.072162
28196000,0.0324,0.013523,0.002678,0.000431,0.004701
28197000,0.0324,0.013523,0.002678,0.000431,0.012223
28198000,0.0324,0.013523,0.002678,0.000431,0.012223
28199000,0.0324,0.013523,0.002678,0.000431,0.004584
28200000,0.0324,0.013523,0.002678,0.000431,0.019627
28201000,0.0324,0.013523,0.002678,0.000431,0.050067
28202000,0.0324,0.013523,0.002678,0.000431,0.004701
28203000,0.0324,0.013523,0.002678,0.000431,0.004701
28204000,0.0324,0.013523,0.002678,0.000431,0.012223
28205000,0.0324,0.013523,0.002678,0.000431,0.004701
28206000,0.0324,0.013523,0.002678,0.000431,0.004701
28207000,0.0324,0.013523,0.002678,0.000431,0.004701
28208000,0.0324,0.013523,0.002678,0.000431,0.004584
28209000,0.0324,0.013523,0.002678,0.000431,0.004349
28210000,0.0324,0.013523,0.002678,0.000431,0.033378
28211000,0.0324,0.013523,0.002678,0.000431,0.021155
28212000,0.0324,0.013523,0.002678,0.000431,0.004701
28213000,0.0324,0.013523,0.002678,0.000431,0.042075
28214000,0.0324,0.013523,0.002678,0.000431,0.095433
28215000,0.0324,0.013523,0.002678,0.000431,0.004701
28216000,0.0324,0.013523,0.002678,0.000431,0.004701
28217000,0.0324,0.013523,0.002678,0.000431,0.004701
28218000,0.0324,0.013523,0.002678,0.000431,0.004701
28219000,0.0324,0.013523,0.002678,0.000431,0.004701
28220000,0.0324,0.013523,0.002678,0.000431,0.094845
28221000,0.0324,0.013523,0.002678,0.000431,0.079567
28222000,0.0324,0.013523,0.002678,0.000431,0.004701
28223000,0.0324,0.013523,0.002678,0.000431,0.027267
28224000,0.0324,0.013523,0.002678,0.000431,0.011988
28225000,0.0324,0.013523,0.002678,0.000431,0.004701
28226000,0.0324,0.013523,0.002678,0.000431,0.008462
28227000,0.0324,0.013523,0.002678,0.000431,0.046071
28228000,0.0324,0.013523,0.002678,0.000431,0.004701
28229000,0.0324,0.013523,0.002678,0.000431,0.004701
28230000,0.0324,0.013523,0.002678,0.000431,0.049832
28231000,0.0324,0.013523,0.002678,0.000431,0.004701
28232000,0.0324,0.013523,0.002678,0.000431,0.004701
28233000,0.0324,0.013523,0.002678,0.000431,0.004701
28234000,0.0324,0.013523,0.002678,0.000431,0.019745
28235000,0.0324,0.013523,0.002678,0.000431,0.004701
28236000,0.0324,0.013523,0.002678,0.000431,0.042310
28237000,0.0324,0.013523,0.002678,0.000431,0.004701
28238000,0.0324,0.013523,0.002678,0.000431,0.004701
28239000,0.0324,0.013523,0.002678,0.000431,0.096373
28240000,0.0324,0.013523,0.002678,0.000431,0.048422
28241000,0.0324,0.013523,0.002678,0.000431,0.004701
28242000,0.0324,0.013523,0.002678,0.000431,0.004701
28243000,0.0324,0.013523,0.002678,0.000431,0.004701
28244000,0.0324,0.013523,0.002678,0.000431,0.004701
28245000,0.0324,0.013523,0.002678,0.000431,0.017747
28246000,0.0324,0.013523,0.002678,0.000431,0.021743
28247000,0.0324,0.013523,0.002678,0.000431,0.004701
28248000,0.0324,0.013523,0.002678,0.000431,0.004584
28249000,0.0324,0.013523,0.002678,0.000431,0.004584
28250000,0.0324,0.013523,0.002678,0.000431,0.004701
28251000,0.0324,0.013523,0.002678,0.000431,0.004701
28252000,0.0324,0.013523,0.002678,0.000431,0.042545
28253000,0.0324,0.013523,0.002678,0.000431,0.004701
28254000,0.0324,0.013523,0.002678,0.000431,0.004701
28255000,0.0324,0.013523,0.002678,0.000431,0.034201
28256000,0.0324,0.013523,0.002678,0.000431,0.035141
28257000,0.0324,0.013523,0.002678,0.000431,0.004701
28258000,0.0324,0.013523,0.002678,0.000431,0.009520
28259000,0.0324,0.013523,0.002678,0.000431,0.037491
28260000,0.0324,0.013523,0.002678,0.000431,0.004584
28261000,0.0324,0.013523,0.002678,0.000431,0.004584
28262000,0.0324,0.013523,0.002678,0.000431,0.034788
28263000,0.0324,0.013523,0.002678,0.000431,0.004701
28264000,0.0324,0.013523,0.002678,0.000431,0.004466
28265000,0.0324,0.013523,0.002678,0.000431,0.042310
28266000,0.0324,0.013523,0.002678,0.000431,0.019745
28267000,0.0324,0.013523,0.002678,0.000431,0.004701
28268000,0.0324,0.013523,0.002678,0.000431,0.012223
28269000,0.0324,0.013523,0.002678,0.000431,0.004701
28270000,0.0324,0.013523,0.002678,0.000431,0.004701
28271000,0.0324,0.013523,0.002678,0.000431,0.012223
28272000,0.0324,0.013523,0.002678,0.000431,0.034788
28273000,0.0324,0.013523,0.002678,0.000431,0.004701
28274000,0.0324,0.013523,0.002678,0.000431,0.004701
28275000,0.0324,0.013523,0.002678,0.000431,0.004701
28276000,0.0324,0.013523,0.002678,0.000431,0.004701
28277000,0.0324,0.013523,0.002678,0.000431,0.011048
28278000,0.0324,0.013523,0.002678,0.000431,0.051007
28279000,0.0324,0.013523,0.002678,0.000431,0.050302
28280000,0.0324,0.013523,0.002678,0.000431,0.004701
28281000,0.0324,0.013523,0.002678,0.000431,0.004701
28282000,0.0324,0.013523,0.002678,0.000431,0.004701
28283000,0.0324,0.013523,0.002678,0.000431,0.004584
28284000,0.0324,0.013523,0.002678,0.000431,0.034671
28285000,0.0324,0.013523,0.002678,0.000431,0.004701
28286000,0.0324,0.013523,0.002678,0.000431,0.004701
28287000,0.0324,0.013523,0.002678,0.000431,0.005524
28288000,0.0324,0.013523,0.002678,0.000431,0.018922
28289000,0.0324,0.013523,0.002678,0.000431,0.004466
28290000,0.0324,0.013523,0.002678,0.000431,0.016219
28291000,0.0324,0.013523,0.002678,0.000431,0.121172
28292000,0.0324,0.013523,0.002678,0.000431,0.020097
28293000,0.0324,0.013523,0.002678,0.000431,0.004701
28294000,0.0324,0.013523,0.002678,0.000431,0.057354
28295000,0.0324,0.013523,0.002678,0.000431,0.004701
28296000,0.0324,0.013523,0.002678,0.000431,0.019745
28297000,0.0324,0.013523,0.002678,0.000431,0.027267
28298000,0.0324,0.013523,0.002678,0.000431,0.034788
28299000,0.0324,0.013523,0.002678,0.000431,0.004701
28300000,0.0324,0.013523,0.002678,0.000431,0.004584
28301000,0.0324,0.013523,0.002678,0.000431,0.004584
28302000,0.0324,0.013523,0.002678,0.000431,0.004701
28303000,0.0324,0.013523,0.002678,0.000431,0.079919
28304000,0.0324,0.013523,0.002678,0.000431,0.011988
28305000,0.0324,0.013523,0.002678,0.000431,0.004701
28306000,0.0324,0.013523,0.002678,0.000431,0.004701
28307000,0.0324,0.013523,0.002678,0.000431,0.035258
28308000,0.0324,0.013523,0.002678,0.000431,0.004701
28309000,0.0324,0.013523,0.002678,0.000431,0.004701
28310000,0.0324,0.013523,0.002678,0.000431,0.042310
28311000,0.0324,0.013523,0.002678,0.000431,0.019745
28312000,0.0324,0.013523,0.002678,0.000431,0.004701
28313000,0.0324,0.013523,0.002678,0.000431,0.004701
28314000,0.0324,0.013523,0.002678,0.000431,0.004701
28315000,0.0324,0.013523,0.002678,0.000431,0.006111
28316000,0.0324,0.013523,0.002678,0.000431,0.010813
28317000,0.0324,0.013523,0.002678,0.000431,0.004701
28318000,0.0324,0.013523,0.002678,0.000431,0.004466
28319000,0.0324,0.013523,0.002678,0.000431,0.004701
28320000,0.0324,0.013523,0.002678,0.000431,0.004701
28321000,0.0324,0.013523,0.002678,0.000431,0.004701
28322000,0.0324,0.013523,0.002678,0.000431,0.079919
28323000,0.0324,0.013523,0.002678,0.000431,0.019745
28324000,0.0324,0.013523,0.002678,0.000431,0.019627
28325000,0.0324,0.013523,0.002678,0.000431,0.004584
28326000,0.0324,0.013523,0.002678,0.000431,0.012223
28327000,0.0324,0.013523,0.002678,0.000431,0.004701
28328000,0.0324,0.013523,0.002678,0.000431,0.004701
28329000,0.0324,0.013523,0.002678,0.000431,0.033496
28330000,0.0324,0.013523,0.002678,0.000431,0.021038
28331000,0.0324,0.013523,0.002678,0.000431,0.004701
28332000,0.0324,0.013523,0.002678,0.000431,0.004701
28333000,0.0324,0.013523,0.002678,0.000431,0.042193
28334000,0.0324,0.013523,0.002678,0.000431,0.004584
28335000,0.0324,0.013523,0.002678,0.000431,0.004701
28336000,0.0324,0.013523,0.002678,0.000431,0.012223
28337000,0.0324,0.013523,0.002678,0.000431,0.012223
28338000,0.0324,0.013523,0.002678,0.000431,0.004701
28339000,0.0324,0.013523,0.002678,0.000431,0.004701
28340000,0.0324,0.013523,0.002678,0.000431,0.004584
28341000,0.0324,0.013523,0.002678,0.000431,0.015866
28342000,0.0324,0.013523,0.002678,0.000431,0.023506
28343000,0.0324,0.013523,0.002678,0.000431,0.004701
28344000,0.0324,0.013523,0.002678,0.000431,0.004584
28345000,0.0324,0.013523,0.002678,0.000431,0.015279
28346000,0.0324,0.013523,0.002678,0.000431,0.061467
28347000,0.0324,0.013523,0.002678,0.000431,0.004701
28348000,0.0324,0.013523,0.002678,0.000431,0.012223
28349000,0.0324,0.013523,0.002678,0.000431,0.024681
28350000,0.0324,0.013523,0.002678,0.000431,0.104953
28351000,0.0324,0.013523,0.002678,0.000431,0.004584
28352000,0.0324,0.013523,0.002678,0.000431,0.034788
28353000,0.0324,0.013523,0.002678,0.000431,0.004701
28354000,0.0324,0.013523,0.002678,0.000431,0.027267
28355000,0.0324,0.013523,0.002678,0.000431,0.012223
28356000,0.0324,0.013523,0.002678,0.000431,0.004701
28357000,0.0324,0.013523,0.002678,0.000431,0.004701
28358000,0.0324,0.013523,0.002678,0.000431,0.008462
28359000,0.0324,0.013523,0.002678,0.000431,0.023506
28360000,0.0324,0.013523,0.002678,0.000431,0.004701
28361000,0.0324,0.013523,0.002678,0.000431,0.027031
28362000,0.0324,0.013523,0.002678,0.000431,0.004701
28363000,0.0324,0.013523,0.002678,0.000431,0.004936
28364000,0.0324,0.013523,0.002678,0.000431,0.004701
28365000,0.0324,0.013523,0.002678,0.000431,0.034788
28366000,0.0324,0.013523,0.002678,0.000431,0.004701
28367000,0.0324,0.013523,0.002678,0.000431,0.023858
28368000,0.0324,0.013523,0.002678,0.000431,0.008109
28369000,0.0324,0.013523,0.002678,0.000431,0.027267
28370000,0.0324,0.013523,0.002678,0.000431,0.004701
28371000,0.0324,0.013523,0.002678,0.000431,0.043368
28372000,0.0324,0.013523,0.002678,0.000431,0.041252
28373000,0.0324,0.013523,0.002678,0.000431,0.004584
28374000,0.0324,0.013523,0.002678,0.000431,0.086971
28375000,0.0324,0.013523,0.002678,0.000431,0.004584
28376000,0.0324,0.013523,0.002678,0.000431,0.004701
28377000,0.0324,0.013523,0.002678,0.000431,0.004701
28378000,0.0324,0.013523,0.002678,0.000431,0.015984
28379000,0.0324,0.013523,0.002678,0.000431,0.008462
28380000,0.0324,0.013523,0.002678,0.000431,0.004701
28381000,0.0324,0.013523,0.002678,0.000431,0.004701
28382000,0.0324,0.013523,0.002678,0.000431,0.004701
28383000,0.0324,0.013523,0.002678,0.000431,0.004701
28384000,0.0324,0.013523,0.002678,0.000431,0.012223
28385000,0.0324,0.013523,0.002678,0.000431,0.004701
28386000,0.0324,0.013523,0.002678,0.000431,0.020215
28387000,0.0324,0.013523,0.002678,0.000431,0.116823
28388000,0.0324,0.013523,0.002678,0.000431,0.012223
28389000,0.0324,0.013523,0.002678,0.000431,0.012223
28390000,0.0324,0.013523,0.002678,0.000431,0.004584
28391000,0.0324,0.013523,0.002678,0.000431,0.019627
28392000,0.0324,0.013523,0.002678,0.000431,0.004701
28393000,0.0324,0.013523,0.002678,0.000431,0.004701
28394000,0.0324,0.013523,0.002678,0.000431,0.004701
28395000,0.0324,0.013523,0.002678,0.000431,0.012223
28396000,0.0324,0.013523,0.002678,0.000431,0.004701
28397000,0.0324,0.013523,0.002678,0.000431,0.042310
28398000,0.0324,0.013523,0.002678,0.000431,0.004701
28399000,0.0324,0.013523,0.002678,0.000431,0.005876
28400000,0.0324,0.013523,0.002678,0.000431,0.108831
28401000,0.0324,0.013523,0.002678,0.000431,0.047599
28402000,0.0324,0.013523,0.002678,0.000431,0.044543
28403000,0.0324,0.013523,0.002678,0.000431,0.004701
28404000,0.0324,0.013523,0.002678,0.000431,0.004701
28405000,0.0324,0.013523,0.002678,0.000431,0.004701
28406000,0.0324,0.013523,0.002678,0.000431,0.031262
28407000,0.0324,0.013523,0.002678,0.000431,0.015984
28408000,0.0324,0.013523,0.002678,0.000431,0.004466
28409000,0.0324,0.013523,0.002678,0.000431,0.004701
28410000,0.0324,0.013523,0.002678,0.000431,0.012223
28411000,0.0324,0.013523,0.002678,0.000431,0.004701
28412000,0.0324,0.013523,0.002678,0.000431,0.046071
28413000,0.0324,0.013523,0.002678,0.000431,0.008462
28414000,0.0324,0.013523,0.002678,0.000431,0.023388
28415000,0.0324,0.013523,0.002678,0.000431,0.008345
28416000,0.0324,0.013523,0.002678,0.000431,0.004701
28417000,0.0324,0.013523,0.002678,0.000431,0.004701
28418000,0.0324,0.013523,0.002678,0.000431,0.004701
28419000,0.0324,0.013523,0.002678,0.000431,0.087676
28420000,0.0324,0.013523,0.002678,0.000431,0.010342
28421000,0.0324,0.013523,0.002678,0.000431,0.051712
28422000,0.0324,0.013523,0.002678,0.000431,0.004701
28423000,0.0324,0.013523,0.002678,0.000431,0.012223
28424000,0.0324,0.013523,0.002678,0.000431,0.004584
28425000,0.0324,0.013523,0.002678,0.000431,0.023388
28426000,0.0324,0.013523,0.002678,0.000431,0.008462
28427000,0.0324,0.013523,0.002678,0.000431,0.004701
28428000,0.0324,0.013523,0.002678,0.000431,0.004701
28429000,0.0324,0.013523,0.002678,0.000431,0.027031
28430000,0.0324,0.013523,0.002678,0.000431,0.004819
28431000,0.0324,0.013523,0.002678,0.000431,0.004584
28432000,0.0324,0.013523,0.002678,0.000431,0.027502
28433000,0.0324,0.013523,0.002678,0.000431,0.019745
28434000,0.0324,0.013523,0.002678,0.000431,0.019745
28435000,0.0324,0.013523,0.002678,0.000431,0.004701
28436000,0.0324,0.013523,0.002678,0.000431,0.027031
28437000,0.0324,0.013523,0.002678,0.000431,0.004701
28438000,0.0324,0.013523,0.002678,0.000431,0.046306
28439000,0.0324,0.013523,0.002678,0.000431,0.008462
28440000,0.0324,0.013523,0.002678,0.000431,0.004701
28441000,0.0324,0.013523,0.002678,0.000431,0.004701
28442000,0.0324,0.013523,0.002678,0.000431,0.042310
28443000,0.0324,0.013523,0.002678,0.000431,0.004701
28444000,0.0324,0.013523,0.002678,0.000431,0.018334
28445000,0.0324,0.013523,0.002678,0.000431,0.126460
28446000,0.0324,0.013523,0.002678,0.000431,0.004701
28447000,0.0324,0.013523,0.002678,0.000431,0.027267
28448000,0.0324,0.013523,0.002678,0.000431,0.004466
28449000,0.0324,0.013523,0.002678,0.000431,0.012223
28450000,0.0324,0.013523,0.002678,0.000431,0.004701
28451000,0.0324,0.013523,0.002678,0.000431,0.013516
28452000,0.0324,0.013523,0.002678,0.000431,0.033496
28453000,0.0324,0.013523,0.002678,0.000431,0.012223
28454000,0.0324,0.013523,0.002678,0.000431,0.004466
28455000,0.0324,0.013523,0.002678,0.000431,0.004466
28456000,0.0324,0.013523,0.002678,0.000431,0.004701
28457000,0.0324,0.013523,0.002678,0.000431,0.004701
28458000,0.0324,0.013523,0.002678,0.000431,0.004701
28459000,0.0324,0.013523,0.002678,0.000431,0.004701
28460000,0.0324,0.013523,0.002678,0.000431,0.080154
28461000,0.0324,0.013523,0.002678,0.000431,0.019745
28462000,0.0324,0.013523,0.002678,0.000431,0.019745
28463000,0.0324,0.013523,0.002678,0.000431,0.004701
28464000,0.0324,0.013523,0.002678,0.000431,0.004701
28465000,0.0324,0.013523,0.002678,0.000431,0.004701
28466000,0.0324,0.013523,0.002678,0.000431,0.031262
28467000,0.0324,0.013523,0.002678,0.000431,0.015984
28468000,0.0324,0.013523,0.002678,0.000431,0.012223
28469000,0.0324,0.013523,0.002678,0.000431,0.004701
28470000,0.0324,0.013523,0.002678,0.000431,0.019745
28471000,0.0324,0.013523,0.002678,0.000431,0.012223
28472000,0.0324,0.013523,0.002678,0.000431,0.004701
28473000,0.0324,0.013523,0.002678,0.000431,0.028324
28474000,0.0324,0.013523,0.002678,0.000431,0.033731
28475000,0.0324,0.013523,0.002678,0.000431,0.004701
28476000,0.0324,0.013523,0.002678,0.000431,0.004701
28477000,0.0324,0.013523,0.002678,0.000431,0.004701
28478000,0.0324,0.013523,0.002678,0.000431,0.004701
28479000,0.0324,0.013523,0.002678,0.000431,0.012223
28480000,0.0324,0.013523,0.002678,0.000431,0.004701
28481000,0.0324,0.013523,0.002678,0.000431,0.064876
28482000,0.0324,0.013523,0.002678,0.000431,0.004466
28483000,0.0324,0.013523,0.002678,0.000431,0.008462
28484000,0.0324,0.013523,0.002678,0.000431,0.023506
28485000,0.0324,0.013523,0.002678,0.000431,0.004701
28486000,0.0324,0.013523,0.002678,0.000431,0.034788
28487000,0.0324,0.013523,0.002678,0.000431,0.004701
28488000,0.0324,0.013523,0.002678,0.000431,0.031380
28489000,0.0324,0.013523,0.002678,0.000431,0.053005
28490000,0.0324,0.013523,0.002678,0.000431,0.027267
28491000,0.0324,0.013523,0.002678,0.000431,0.004701
28492000,0.0324,0.013523,0.002678,0.000431,0.046071
28493000,0.0324,0.013523,0.002678,0.000431,0.008462
28494000,0.0324,0.013523,0.002678,0.000431,0.004466
28495000,0.0324,0.013523,0.002678,0.000431,0.008227
28496000,0.0324,0.013523,0.002678,0.000431,0.027267
28497000,0.0324,0.013523,0.002678,0.000431,0.023506
28498000,0.0324,0.013523,0.002678,0.000431,0.004701
28499000,0.0324,0.013523,0.002678,0.000431,0.012223
28500000,0.0324,0.013523,0.002678,0.000431,0.004701
28501000,0.0324,0.013523,0.002678,0.000431,0.034788
28502000,0.0324,0.013523,0.002678,0.000431,0.145265
28503000,0.0324,0.013523,0.002678,0.000431,0.028442
28504000,0.0324,0.013523,0.002678,0.000431,0.020450
28505000,0.0324,0.013523,0.002678,0.000431,0.014338
28506000,0.0324,0.013523,0.002678,0.000431,0.017629
28507000,0.0324,0.013523,0.002678,0.000431,0.004701
28508000,0.0324,0.013523,0.002678,0.000431,0.012223
28509000,0.0324,0.013523,0.002678,0.000431,0.034788
28510000,0.0324,0.013523,0.002678,0.000431,0.049832
28511000,0.0324,0.013523,0.002678,0.000431,0.004701
28512000,0.0324,0.013523,0.002678,0.000431,0.049832
28513000,0.0324,0.013523,0.002678,0.000431,0.004701
28514000,0.0324,0.013523,0.002678,0.000431,0.004701
28515000,0.0324,0.013523,0.002678,0.000431,0.125050
28516000,0.0324,0.013523,0.002678,0.000431,0.004701
28517000,0.0324,0.013523,0.002678,0.000431,0.004701
28518000,0.0324,0.013523,0.002678,0.000431,0.023506
28519000,0.0324,0.013523,0.002678,0.000431,0.008462
28520000,0.0324,0.013523,0.002678,0.000431,0.004701
28521000,0.0324,0.013523,0.002678,0.000431,0.027502
28522000,0.0324,0.013523,0.002678,0.000431,0.019510
28523000,0.0324,0.013523,0.002678,0.000431,0.049832
28524000,0.0324,0.013523,0.002678,0.000431,0.004701
28525000,0.0324,0.013523,0.002678,0.000431,0.012223
28526000,0.0324,0.013523,0.002678,0.000431,0.004701
28527000,0.0324,0.013523,0.002678,0.000431,0.004466
28528000,0.0324,0.013523,0.002678,0.000431,0.004701
28529000,0.0324,0.013523,0.002678,0.000431,0.012223
28530000,0.0324,0.013523,0.002678,0.000431,0.004701
28531000,0.0324,0.013523,0.002678,0.000431,0.004701
28532000,0.0324,0.013523,0.002678,0.000431,0.004701
28533000,0.0324,0.013523,0.002678,0.000431,0.004701
28534000,0.0324,0.013523,0.002678,0.000431,0.012105
28535000,0.0324,0.013523,0.002678,0.000431,0.011870
28536000,0.0324,0.013523,0.002678,0.000431,0.019745
28537000,0.0324,0.013523,0.002678,0.000431,0.004701
28538000,0.0324,0.013523,0.002678,0.000431,0.004701
28539000,0.0324,0.013523,0.002678,0.000431,0.004701
28540000,0.0324,0.013523,0.002678,0.000431,0.053593
28541000,0.0324,0.013523,0.002678,0.000431,0.015984
28542000,0.0324,0.013523,0.002678,0.000431,0.004701
28543000,0.0324,0.013523,0.002678,0.000431,0.004701
28544000,0.0324,0.013523,0.002678,0.000431,0.030322
28545000,0.0324,0.013523,0.002678,0.000431,0.009167
28546000,0.0324,0.013523,0.002678,0.000431,0.024798
28547000,0.0324,0.013523,0.002678,0.000431,0.029970
28548000,0.0324,0.013523,0.002678,0.000431,0.023506
28549000,0.0324,0.013523,0.002678,0.000431,0.015984
28550000,0.0324,0.013523,0.002678,0.000431,0.004701
28551000,0.0324,0.013523,0.002678,0.000431,0.019745
28552000,0.0324,0.013523,0.002678,0.000431,0.004701
28553000,0.0324,0.013523,0.002678,0.000431,0.035023
28554000,0.0324,0.013523,0.002678,0.000431,0.011988
28555000,0.0324,0.013523,0.002678,0.000431,0.004701
28556000,0.0324,0.013523,0.002678,0.000431,0.004701
28557000,0.0324,0.013523,0.002678,0.000431,0.027267
28558000,0.0324,0.013523,0.002678,0.000431,0.004701
28559000,0.0324,0.013523,0.002678,0.000431,0.004701
28560000,0.0324,0.013523,0.002678,0.000431,0.012223
28561000,0.0324,0.013523,0.002678,0.000431,0.012223
28562000,0.0324,0.013523,0.002678,0.000431,0.004584
28563000,0.0324,0.013523,0.002678,0.000431,0.042193
28564000,0.0324,0.013523,0.002678,0.000431,0.004701
28565000,0.0324,0.013523,0.002678,0.000431,0.008462
28566000,0.0324,0.013523,0.002678,0.000431,0.049832
28567000,0.0324,0.013523,0.002678,0.000431,0.092260
28568000,0.0324,0.013523,0.002678,0.000431,0.063818
28569000,0.0324,0.013523,0.002678,0.000431,0.019745
28570000,0.0324,0.013523,0.002678,0.000431,0.004701
28571000,0.0324,0.013523,0.002678,0.000431,0.006347
28572000,0.0324,0.013523,0.002678,0.000431,0.078509
28573000,0.0324,0.013523,0.002678,0.000431,0.004936
28574000,0.0324,0.013523,0.002678,0.000431,0.004701
28575000,0.0324,0.013523,0.002678,0.000431,0.004466
28576000,0.0324,0.013523,0.002678,0.000431,0.027267
28577000,0.0324,0.013523,0.002678,0.000431,0.004701
28578000,0.0324,0.013523,0.002678,0.000431,0.004701
28579000,0.0324,0.013523,0.002678,0.000431,0.035258
28580000,0.0324,0.013523,0.002678,0.000431,0.010107
28581000,0.0324,0.013523,0.002678,0.000431,0.029617
28582000,0.0324,0.013523,0.002678,0.000431,0.012223
28583000,0.0324,0.013523,0.002678,0.000431,0.004701
28584000,0.0324,0.013523,0.002678,0.000431,0.022330
28585000,0.0324,0.013523,0.002678,0.000431,0.059587
28586000,0.0324,0.013523,0.002678,0.000431,0.052535
28587000,0.0324,0.013523,0.002678,0.000431,0.004701
28588000,0.0324,0.013523,0.002678,0.000431,0.008462
28589000,0.0324,0.013523,0.002678,0.000431,0.023506
28590000,0.0324,0.013523,0.002678,0.000431,0.004466
28591000,0.0324,0.013523,0.002678,0.000431,0.004701
28592000,0.0324,0.013523,0.002678,0.000431,0.004701
28593000,0.0324,0.013523,0.002678,0.000431,0.004701
28594000,0.0324,0.013523,0.002678,0.000431,0.004701
28595000,0.0324,0.013523,0.002678,0.000431,0.004701
28596000,0.0324,0.013523,0.002678,0.000431,0.004701
28597000,0.0324,0.013523,0.002678,0.000431,0.044778
28598000,0.0324,0.013523,0.002678,0.000431,0.067579
28599000,0.0324,0.013523,0.002678,0.000431,0.014573
28600000,0.0324,0.013523,0.002678,0.000431,0.057354
28601000,0.0324,0.013523,0.002678,0.000431,0.004701
28602000,0.0324,0.013523,0.002678,0.000431,0.004584
28603000,0.0324,0.013523,0.002678,0.000431,0.004584
28604000,0.0324,0.013523,0.002678,0.000431,0.057354
28605000,0.0324,0.013523,0.002678,0.000431,0.027267
28606000,0.0324,0.013523,0.002678,0.000431,0.042310
28607000,0.0324,0.013523,0.002678,0.000431,0.004466
28608000,0.0324,0.013523,0.002678,0.000431,0.019745
28609000,0.0324,0.013523,0.002678,0.000431,0.004466
28610000,0.0324,0.013523,0.002678,0.000431,0.012223
28611000,0.0324,0.013523,0.002678,0.000431,0.063348
28612000,0.0324,0.013523,0.002678,0.000431,0.016807
28613000,0.0324,0.013523,0.002678,0.000431,0.061585
28614000,0.0324,0.013523,0.002678,0.000431,0.047364
28615000,0.0324,0.013523,0.002678,0.000431,0.014691
28616000,0.0324,0.013523,0.002678,0.000431,0.004701
28617000,0.0324,0.013523,0.002678,0.000431,0.019745
28618000,0.0324,0.013523,0.002678,0.000431,0.042310
28619000,0.0324,0.013523,0.002678,0.000431,0.057354
28620000,0.0324,0.013523,0.002678,0.000431,0.004701
28621000,0.0324,0.013523,0.002678,0.000431,0.004701
28622000,0.0324,0.013523,0.002678,0.000431,0.004701
28623000,0.0324,0.013523,0.002678,0.000431,0.004701
28624000,0.0324,0.013523,0.002678,0.000431,0.012223
28625000,0.0324,0.013523,0.002678,0.000431,0.004701
28626000,0.0324,0.013523,0.002678,0.000431,0.004701
28627000,0.0324,0.013523,0.002678,0.000431,0.042545
28628000,0.0324,0.013523,0.002678,0.000431,0.004701
28629000,0.0324,0.013523,0.002678,0.000431,0.008462
28630000,0.0324,0.013523,0.002678,0.000431,0.011283
28631000,0.0324,0.013523,0.002678,0.000431,0.024446
28632000,0.0324,0.013523,0.002678,0.000431,0.027267
28633000,0.0324,0.013523,0.002678,0.000431,0.004701
28634000,0.0324,0.013523,0.002678,0.000431,0.012223
28635000,0.0324,0.013523,0.002678,0.000431,0.004584
28636000,0.0324,0.013523,0.002678,0.000431,0.101897
28637000,0.0324,0.013523,0.002678,0.000431,0.027149
28638000,0.0324,0.013523,0.002678,0.000431,0.004584
28639000,0.0324,0.013523,0.002678,0.000431,0.057354
28640000,0.0324,0.013523,0.002678,0.000431,0.038667
28641000,0.0324,0.013523,0.002678,0.000431,0.023623
28642000,0.0324,0.013523,0.002678,0.000431,0.013046
28643000,0.0324,0.013523,0.002678,0.000431,0.064053
28644000,0.0324,0.013523,0.002678,0.000431,0.012458
28645000,0.0324,0.013523,0.002678,0.000431,0.020097
28646000,0.0324,0.013523,0.002678,0.000431,0.036669
28647000,0.0324,0.013523,0.002678,0.000431,0.047599
28648000,0.0324,0.013523,0.002678,0.000431,0.004701
28649000,0.0324,0.013523,0.002678,0.000431,0.034788
28650000,0.0324,0.013523,0.002678,0.000431,0.019745
28651000,0.0324,0.013523,0.002678,0.000431,0.004701
28652000,0.0324,0.013523,0.002678,0.000431,0.004701
28653000,0.0324,0.013523,0.002678,0.000431,0.129634
28654000,0.0324,0.013523,0.002678,0.000431,0.044778
28655000,0.0324,0.013523,0.002678,0.000431,0.017042
28656000,0.0324,0.013523,0.002678,0.000431,0.014691
28657000,0.0324,0.013523,0.002678,0.000431,0.004466
28658000,0.0324,0.013523,0.002678,0.000431,0.012223
28659000,0.0324,0.013523,0.002678,0.000431,0.004701
28660000,0.0324,0.013523,0.002678,0.000431,0.004701
28661000,0.0324,0.013523,0.002678,0.000431,0.004701
28662000,0.0324,0.013523,0.002678,0.000431,0.004701
28663000,0.0324,0.013523,0.002678,0.000431,0.004701
28664000,0.0324,0.013523,0.002678,0.000431,0.004701
28665000,0.0324,0.013523,0.002678,0.000431,0.087676
28666000,0.0324,0.013523,0.002678,0.000431,0.004701
28667000,0.0324,0.013523,0.002678,0.000431,0.019745
28668000,0.0324,0.013523,0.002678,0.000431,0.004584
28669000,0.0324,0.013523,0.002678,0.000431,0.019627
28670000,0.0324,0.013523,0.002678,0.000431,0.004701
28671000,0.0324,0.013523,0.002678,0.000431,0.027502
28672000,0.0324,0.013523,0.002678,0.000431,0.004701
28673000,0.0324,0.013523,0.002678,0.000431,0.004701
28674000,0.0324,0.013523,0.002678,0.000431,0.004701
28675000,0.0324,0.013523,0.002678,0.000431,0.008462
28676000,0.0324,0.013523,0.002678,0.000431,0.038549
28677000,0.0324,0.013523,0.002678,0.000431,0.004701
28678000,0.0324,0.013523,0.002678,0.000431,0.004701
28679000,0.0324,0.013523,0.002678,0.000431,0.004701
28680000,0.0324,0.013523,0.002678,0.000431,0.012223
28681000,0.0324,0.013523,0.002678,0.000431,0.004701
28682000,0.0324,0.013523,0.002678,0.000431,0.012223
28683000,0.0324,0.013523,0.002678,0.000431,0.094728
28684000,0.0324,0.013523,0.002678,0.000431,0.004701
28685000,0.0324,0.013523,0.002678,0.000431,0.004701
28686000,0.0324,0.013523,0.002678,0.000431,0.004466
28687000,0.0324,0.013523,0.002678,0.000431,0.004701
28688000,0.0324,0.013523,0.002678,0.000431,0.037727
28689000,0.0324,0.013523,0.002678,0.000431,0.096373
28690000,0.0324,0.013523,0.002678,0.000431,0.030205
28691000,0.0324,0.013523,0.002678,0.000431,0.019745
28692000,0.0324,0.013523,0.002678,0.000431,0.004701
28693000,0.0324,0.013523,0.002678,0.000431,0.015984
28694000,0.0324,0.013523,0.002678,0.000431,0.046071
28695000,0.0324,0.013523,0.002678,0.000431,0.019745
28696000,0.0324,0.013523,0.002678,0.000431,0.012105
28697000,0.0324,0.013523,0.002678,0.000431,0.013751
28698000,0.0324,0.013523,0.002678,0.000431,0.040665
28699000,0.0324,0.013523,0.002678,0.000431,0.004584
28700000,0.0324,0.013523,0.002678,0.000431,0.004819
28701000,0.0324,0.013523,0.002678,0.000431,0.019745
28702000,0.0324,0.013523,0.002678,0.000431,0.034788
28703000,0.0324,0.013523,0.002678,0.000431,0.004701
28704000,0.0324,0.013523,0.002678,0.000431,0.012223
28705000,0.0324,0.013523,0.002678,0.000431,0.004701
28706000,0.0324,0.013523,0.002678,0.000431,0.004701
28707000,0.0324,0.013523,0.002678,0.000431,0.023506
28708000,0.0324,0.013523,0.002678,0.000431,0.031027
28709000,0.0324,0.013523,0.002678,0.000431,0.004701
28710000,0.0324,0.013523,0.002678,0.000431,0.012223
28711000,0.0324,0.013523,0.002678,0.000431,0.004466
28712000,0.0324,0.013523,0.002678,0.000431,0.046776
28713000,0.0324,0.013523,0.002678,0.000431,0.045366
28714000,0.0324,0.013523,0.002678,0.000431,0.012223
28715000,0.0324,0.013523,0.002678,0.000431,0.034788
28716000,0.0324,0.013523,0.002678,0.000431,0.012223
28717000,0.0324,0.013523,0.002678,0.000431,0.004701
28718000,0.0324,0.013523,0.002678,0.000431,0.004701
28719000,0.0324,0.013523,0.002678,0.000431,0.004701
28720000,0.0324,0.013523,0.002678,0.000431,0.004701
28721000,0.0324,0.013523,0.002678,0.000431,0.034788
28722000,0.0324,0.013523,0.002678,0.000431,0.006817
28723000,0.0324,0.013523,0.002678,0.000431,0.025151
28724000,0.0324,0.013523,0.002678,0.000431,0.004701
28725000,0.0324,0.013523,0.002678,0.000431,0.026561
28726000,0.0324,0.013523,0.002678,0.000431,0.012811
28727000,0.0324,0.013523,0.002678,0.000431,0.027149
28728000,0.0324,0.013523,0.002678,0.000431,0.012223
28729000,0.0324,0.013523,0.002678,0.000431,0.004701
28730000,0.0324,0.013523,0.002678,0.000431,0.004701
28731000,0.0324,0.013523,0.002678,0.000431,0.012223
28732000,0.0324,0.013523,0.002678,0.000431,0.004701
28733000,0.0324,0.013523,0.002678,0.000431,0.004701
28734000,0.0324,0.013523,0.002678,0.000431,0.034788
28735000,0.0324,0.013523,0.002678,0.000431,0.018805
28736000,0.0324,0.013523,0.002678,0.000431,0.028207
28737000,0.0324,0.013523,0.002678,0.000431,0.004466
28738000,0.0324,0.013523,0.002678,0.000431,0.004701
28739000,0.0324,0.013523,0.002678,0.000431,0.004584
28740000,0.0324,0.013523,0.002678,0.000431,0.019627
28741000,0.0324,0.013523,0.002678,0.000431,0.102720
28742000,0.0324,0.013523,0.002678,0.000431,0.027267
28743000,0.0324,0.013523,0.002678,0.000431,0.042310
28744000,0.0324,0.013523,0.002678,0.000431,0.004701
28745000,0.0324,0.013523,0.002678,0.000431,0.004701
28746000,0.0324,0.013523,0.002678,0.000431,0.015984
28747000,0.0324,0.013523,0.002678,0.000431,0.023271
28748000,0.0324,0.013523,0.002678,0.000431,0.057354
28749000,0.0324,0.013523,0.002678,0.000431,0.072397
28750000,0.0324,0.013523,0.002678,0.000431,0.004701
28751000,0.0324,0.013523,0.002678,0.000431,0.004701
28752000,0.0324,0.013523,0.002678,0.000431,0.016454
28753000,0.0324,0.013523,0.002678,0.000431,0.053123
28754000,0.0324,0.013523,0.002678,0.000431,0.015866
28755000,0.0324,0.013523,0.002678,0.000431,0.008345
28756000,0.0324,0.013523,0.002678,0.000431,0.015984
28757000,0.0324,0.013523,0.002678,0.000431,0.083680
28758000,0.0324,0.013523,0.002678,0.000431,0.004701
28759000,0.0324,0.013523,0.002678,0.000431,0.004701
28760000,0.0324,0.013523,0.002678,0.000431,0.031027
28761000,0.0324,0.013523,0.002678,0.000431,0.023623
28762000,0.0324,0.013523,0.002678,0.000431,0.042428
28763000,0.0324,0.013523,0.002678,0.000431,0.004701
28764000,0.0324,0.013523,0.002678,0.000431,0.004466
28765000,0.0324,0.013523,0.002678,0.000431,0.004701
28766000,0.0324,0.013523,0.002678,0.000431,0.012223
28767000,0.0324,0.013523,0.002678,0.000431,0.019745
28768000,0.0324,0.013523,0.002678,0.000431,0.012223
28769000,0.0324,0.013523,0.002678,0.000431,0.019745
28770000,0.0324,0.013523,0.002678,0.000431,0.012223
28771000,0.0324,0.013523,0.002678,0.000431,0.004701
28772000,0.0324,0.013523,0.002678,0.000431,0.027267
28773000,0.0324,0.013523,0.002678,0.000431,0.019980
28774000,0.0324,0.013523,0.002678,0.000431,0.004701
28775000,0.0324,0.013523,0.002678,0.000431,0.019745
28776000,0.0324,0.013523,0.002678,0.000431,0.058647
28777000,0.0324,0.013523,0.002678,0.000431,0.010930
28778000,0.0324,0.013523,0.002678,0.000431,0.005289
28779000,0.0324,0.013523,0.002678,0.000431,0.012928
28780000,0.0324,0.013523,0.002678,0.000431,0.025739
28781000,0.0324,0.013523,0.002678,0.000431,0.004701
28782000,0.0324,0.013523,0.002678,0.000431,0.019510
28783000,0.0324,0.013523,0.002678,0.000431,0.004701
28784000,0.0324,0.013523,0.002678,0.000431,0.004701
28785000,0.0324,0.013523,0.002678,0.000431,0.079919
28786000,0.0324,0.013523,0.002678,0.000431,0.004701
28787000,0.0324,0.013523,0.002678,0.000431,0.019745
28788000,0.0324,0.013523,0.002678,0.000431,0.004701
28789000,0.0324,0.013523,0.002678,0.000431,0.034788
28790000,0.0324,0.013523,0.002678,0.000431,0.004701
28791000,0.0324,0.013523,0.002678,0.000431,0.004701
28792000,0.0324,0.013523,0.002678,0.000431,0.019745
28793000,0.0324,0.013523,0.002678,0.000431,0.019745
28794000,0.0324,0.013523,0.002678,0.000431,0.038432
28795000,0.0324,0.013523,0.002678,0.000431,0.055591
28796000,0.0324,0.013523,0.002678,0.000431,0.010107
28797000,0.0324,0.013523,0.002678,0.000431,0.004701
28798000,0.0324,0.013523,0.002678,0.000431,0.023506
28799000,0.0324,0.013523,0.002678,0.000431,0.031027
28800000,0.0324,0.013523,0.002678,0.000431,0.004701
28801000,0.0324,0.013523,0.002678,0.000431,0.021273
28802000,0.0324,0.013523,0.002678,0.000431,0.033260
28803000,0.0324,0.013523,0.002678,0.000431,0.004701
28804000,0.0324,0.013523,0.002678,0.000431,0.004584
28805000,0.0324,0.013523,0.002678,0.000431,0.032555
28806000,0.0324,0.013523,0.002678,0.000431,0.014338
28807000,0.0324,0.013523,0.002678,0.000431,0.027267
28808000,0.0324,0.013523,0.002678,0.000431,0.050302
28809000,0.0324,0.013523,0.002678,0.000431,0.004701
28810000,0.0324,0.013523,0.002678,0.000431,0.004701
28811000,0.0324,0.013523,0.002678,0.000431,0.004701
28812000,0.0324,0.013523,0.002678,0.000431,0.049832
28813000,0.0324,0.013523,0.002678,0.000431,0.004701
28814000,0.0324,0.013523,0.002678,0.000431,0.012223
28815000,0.0324,0.013523,0.002678,0.000431,0.012223
28816000,0.0324,0.013523,0.002678,0.000431,0.004701
28817000,0.0324,0.013523,0.002678,0.000431,0.121054
28818000,0.0324,0.013523,0.002678,0.000431,0.045836
28819000,0.0324,0.013523,0.002678,0.000431,0.004701
28820000,0.0324,0.013523,0.002678,0.000431,0.019745
28821000,0.0324,0.013523,0.002678,0.000431,0.042310
28822000,0.0324,0.013523,0.002678,0.000431,0.004466
28823000,0.0324,0.013523,0.002678,0.000431,0.004701
28824000,0.0324,0.013523,0.002678,0.000431,0.027267
28825000,0.0324,0.013523,0.002678,0.000431,0.095433
28826000,0.0324,0.013523,0.002678,0.000431,0.037256
28827000,0.0324,0.013523,0.002678,0.000431,0.086618
28828000,0.0324,0.013523,0.002678,0.000431,0.010342
28829000,0.0324,0.013523,0.002678,0.000431,0.004701
28830000,0.0324,0.013523,0.002678,0.000431,0.019745
28831000,0.0324,0.013523,0.002678,0.000431,0.004701
28832000,0.0324,0.013523,0.002678,0.000431,0.004701
28833000,0.0324,0.013523,0.002678,0.000431,0.004701
28834000,0.0324,0.013523,0.002678,0.000431,0.027737
28835000,0.0324,0.013523,0.002678,0.000431,0.004701
28836000,0.0324,0.013523,0.002678,0.000431,0.004701
28837000,0.0324,0.013523,0.002678,0.000431,0.004701
28838000,0.0324,0.013523,0.002678,0.000431,0.004466
28839000,0.0324,0.013523,0.002678,0.000431,0.033260
28840000,0.0324,0.013523,0.002678,0.000431,0.069812
28841000,0.0324,0.013523,0.002678,0.000431,0.031615
28842000,0.0324,0.013523,0.002678,0.000431,0.004701
28843000,0.0324,0.013523,0.002678,0.000431,0.004936
28844000,0.0324,0.013523,0.002678,0.000431,0.027384
28845000,0.0324,0.013523,0.002678,0.000431,0.004584
28846000,0.0324,0.013523,0.002678,0.000431,0.004701
28847000,0.0324,0.013523,0.002678,0.000431,0.012223
28848000,0.0324,0.013523,0.002678,0.000431,0.004701
28849000,0.0324,0.013523,0.002678,0.000431,0.004701
28850000,0.0324,0.013523,0.002678,0.000431,0.020450
28851000,0.0324,0.013523,0.002678,0.000431,0.079214
28852000,0.0324,0.013523,0.002678,0.000431,0.008462
28853000,0.0324,0.013523,0.002678,0.000431,0.008462
28854000,0.0324,0.013523,0.002678,0.000431,0.004584
28855000,0.0324,0.013523,0.002678,0.000431,0.004584
28856000,0.0324,0.013523,0.002678,0.000431,0.098724
28857000,0.0324,0.013523,0.002678,0.000431,0.015984
28858000,0.0324,0.013523,0.002678,0.000431,0.012223
28859000,0.0324,0.013523,0.002678,0.000431,0.004701
28860000,0.0324,0.013523,0.002678,0.000431,0.004701
28861000,0.0324,0.013523,0.002678,0.000431,0.004701
28862000,0.0324,0.013523,0.002678,0.000431,0.004584
28863000,0.0324,0.013523,0.002678,0.000431,0.019627
28864000,0.0324,0.013523,0.002678,0.000431,0.004701
28865000,0.0324,0.013523,0.002678,0.000431,0.019745
28866000,0.0324,0.013523,0.002678,0.000431,0.072397
28867000,0.0324,0.013523,0.002678,0.000431,0.004701
28868000,0.0324,0.013523,0.002678,0.000431,0.004701
28869000,0.0324,0.013523,0.002678,0.000431,0.039137
28870000,0.0324,0.013523,0.002678,0.000431,0.026914
28871000,0.0324,0.013523,0.002678,0.000431,0.008462
28872000,0.0324,0.013523,0.002678,0.000431,0.008580
28873000,0.0324,0.013523,0.002678,0.000431,0.061232
28874000,0.0324,0.013523,0.002678,0.000431,0.004701
28875000,0.0324,0.013523,0.002678,0.000431,0.004701
28876000,0.0324,0.013523,0.002678,0.000431,0.004701
28877000,0.0324,0.013523,0.002678,0.000431,0.046306
28878000,0.0324,0.013523,0.002678,0.000431,0.023506
28879000,0.0324,0.013523,0.002678,0.000431,0.004701
28880000,0.0324,0.013523,0.002678,0.000431,0.019745
28881000,0.0324,0.013523,0.002678,0.000431,0.004701
28882000,0.0324,0.013523,0.002678,0.000431,0.004701
28883000,0.0324,0.013523,0.002678,0.000431,0.019745
28884000,0.0324,0.013523,0.002678,0.000431,0.049832
28885000,0.0324,0.013523,0.002678,0.000431,0.004701
28886000,0.0324,0.013523,0.002678,0.000431,0.004701
28887000,0.0324,0.013523,0.002678,0.000431,0.004701
28888000,0.0324,0.013523,0.002678,0.000431,0.004701
28889000,0.0324,0.013523,0.002678,0.000431,0.057354
28890000,0.0324,0.013523,0.002678,0.000431,0.004701
28891000,0.0324,0.013523,0.002678,0.000431,0.004701
28892000,0.0324,0.013523,0.002678,0.000431,0.024798
28893000,0.0324,0.013523,0.002678,0.000431,0.007169
28894000,0.0324,0.013523,0.002678,0.000431,0.004701
28895000,0.0324,0.013523,0.002678,0.000431,0.014926
28896000,0.0324,0.013523,0.002678,0.000431,0.024563
28897000,0.0324,0.013523,0.002678,0.000431,0.042310
28898000,0.0324,0.013523,0.002678,0.000431,0.004701
28899000,0.0324,0.013523,0.002678,0.000431,0.064641
28900000,0.0324,0.013523,0.002678,0.000431,0.004701
28901000,0.0324,0.013523,0.002678,0.000431,0.004701
28902000,0.0324,0.013523,0.002678,0.000431,0.004701
28903000,0.0324,0.013523,0.002678,0.000431,0.030675
28904000,0.0324,0.013523,0.002678,0.000431,0.008345
28905000,0.0324,0.013523,0.002678,0.000431,0.012223
28906000,0.0324,0.013523,0.002678,0.000431,0.004701
28907000,0.0324,0.013523,0.002678,0.000431,0.004701
28908000,0.0324,0.013523,0.002678,0.000431,0.055826
28909000,0.0324,0.013523,0.002678,0.000431,0.058647
28910000,0.0324,0.013523,0.002678,0.000431,0.035258
28911000,0.0324,0.013523,0.002678,0.000431,0.004701
28912000,0.0324,0.013523,0.002678,0.000431,0.004701
28913000,0.0324,0.013523,0.002678,0.000431,0.004701
28914000,0.0324,0.013523,0.002678,0.000431,0.117528
28915000,0.0324,0.013523,0.002678,0.000431,0.035023
28916000,0.0324,0.013523,0.002678,0.000431,0.004701
28917000,0.0324,0.013523,0.002678,0.000431,0.004701
28918000,0.0324,0.013523,0.002678,0.000431,0.004701
28919000,0.0324,0.013523,0.002678,0.000431,0.004701
28920000,0.0324,0.013523,0.002678,0.000431,0.004701
28921000,0.0324,0.013523,0.002678,0.000431,0.004701
28922000,0.0324,0.013523,0.002678,0.000431,0.012223
28923000,0.0324,0.013523,0.002678,0.000431,0.012223
28924000,0.0324,0.013523,0.002678,0.000431,0.017982
28925000,0.0324,0.013523,0.002678,0.000431,0.029029
28926000,0.0324,0.013523,0.002678,0.000431,0.004701
28927000,0.0324,0.013523,0.002678,0.000431,0.012223
28928000,0.0324,0.013523,0.002678,0.000431,0.072515
28929000,0.0324,0.013523,0.002678,0.000431,0.019627
28930000,0.0324,0.013523,0.002678,0.000431,0.004701
28931000,0.0324,0.013523,0.002678,0.000431,0.004701
28932000,0.0324,0.013523,0.002678,0.000431,0.004701
28933000,0.0324,0.013523,0.002678,0.000431,0.012458
28934000,0.0324,0.013523,0.002678,0.000431,0.004701
28935000,0.0324,0.013523,0.002678,0.000431,0.037609
28936000,0.0324,0.013523,0.002678,0.000431,0.054533
28937000,0.0324,0.013523,0.002678,0.000431,0.015984
28938000,0.0324,0.013523,0.002678,0.000431,0.008462
28939000,0.0324,0.013523,0.002678,0.000431,0.010578
28940000,0.0324,0.013523,0.002678,0.000431,0.036434
28941000,0.0324,0.013523,0.002678,0.000431,0.023506
28942000,0.0324,0.013523,0.002678,0.000431,0.023506
28943000,0.0324,0.013523,0.002678,0.000431,0.004701
28944000,0.0324,0.013523,0.002678,0.000431,0.136098
28945000,0.0324,0.013523,0.002678,0.000431,0.008462
28946000,0.0324,0.013523,0.002678,0.000431,0.005171
28947000,0.0324,0.013523,0.002678,0.000431,0.008462
28948000,0.0324,0.013523,0.002678,0.000431,0.008462
28949000,0.0324,0.013523,0.002678,0.000431,0.004701
28950000,0.0324,0.013523,0.002678,0.000431,0.004466
28951000,0.0324,0.013523,0.002678,0.000431,0.034788
28952000,0.0324,0.013523,0.002678,0.000431,0.015984
28953000,0.0324,0.013523,0.002678,0.000431,0.015984
28954000,0.0324,0.013523,0.002678,0.000431,0.004701
28955000,0.0324,0.013523,0.002678,0.000431,0.004701
28956000,0.0324,0.013523,0.002678,0.000431,0.007874
28957000,0.0324,0.013523,0.002678,0.000431,0.016571
28958000,0.0324,0.013523,0.002678,0.000431,0.004701
28959000,0.0324,0.013523,0.002678,0.000431,0.004701
28960000,0.0324,0.013523,0.002678,0.000431,0.009520
28961000,0.0324,0.013523,0.002678,0.000431,0.037491
28962000,0.0324,0.013523,0.002678,0.000431,0.004701
28963000,0.0324,0.013523,0.002678,0.000431,0.035023
28964000,0.0324,0.013523,0.002678,0.000431,0.004701
28965000,0.0324,0.013523,0.002678,0.000431,0.027267
28966000,0.0324,0.013523,0.002678,0.000431,0.004701
28967000,0.0324,0.013523,0.002678,0.000431,0.042310
28968000,0.0324,0.013523,0.002678,0.000431,0.004701
28969000,0.0324,0.013523,0.002678,0.000431,0.017042
28970000,0.0324,0.013523,0.002678,0.000431,0.105423
28971000,0.0324,0.013523,0.002678,0.000431,0.004701
28972000,0.0324,0.013523,0.002678,0.000431,0.094963
28973000,0.0324,0.013523,0.002678,0.000431,0.004701
28974000,0.0324,0.013523,0.002678,0.000431,0.004701
28975000,0.0324,0.013523,0.002678,0.000431,0.004701
28976000,0.0324,0.013523,0.002678,0.000431,0.042545
28977000,0.0324,0.013523,0.002678,0.000431,0.057589
28978000,0.0324,0.013523,0.002678,0.000431,0.011165
28979000,0.0324,0.013523,0.002678,0.000431,0.020802
28980000,0.0324,0.013523,0.002678,0.000431,0.004701
28981000,0.0324,0.013523,0.002678,0.000431,0.004701
28982000,0.0324,0.013523,0.002678,0.000431,0.004701
28983000,0.0324,0.013523,0.002678,0.000431,0.019627
28984000,0.0324,0.013523,0.002678,0.000431,0.004584
28985000,0.0324,0.013523,0.002678,0.000431,0.012223
28986000,0.0324,0.013523,0.002678,0.000431,0.004701
28987000,0.0324,0.013523,0.002678,0.000431,0.004701
28988000,0.0324,0.013523,0.002678,0.000431,0.004701
28989000,0.0324,0.013523,0.002678,0.000431,0.027267
28990000,0.0324,0.013523,0.002678,0.000431,0.004466
28991000,0.0324,0.013523,0.002678,0.000431,0.004701
28992000,0.0324,0.013523,0.002678,0.000431,0.004701
28993000,0.0324,0.013523,0.002678,0.000431,0.004701
28994000,0.0324,0.013523,0.002678,0.000431,0.004701
28995000,0.0324,0.013523,0.002678,0.000431,0.027267
28996000,0.0324,0.013523,0.002678,0.000431,0.042545
28997000,0.0324,0.013523,0.002678,0.000431,0.004701
28998000,0.0324,0.013523,0.002678,0.000431,0.004701
28999000,0.0324,0.013523,0.002678,0.000431,0.004701
