Cycle,Area(mm^2),PeakDynamic(W),SubthresholdLeakage(W),GateLeakage(W),RunTimeDynamic(W)
27000000,0.0324,0.013523,0.002678,0.000431,0.004584
27001000,0.0324,0.013523,0.002678,0.000431,0.004701
27002000,0.0324,0.013523,0.002678,0.000431,0.043720
27003000,0.0324,0.013523,0.002678,0.000431,0.091437
27004000,0.0324,0.013523,0.002678,0.000431,0.023271
27005000,0.0324,0.013523,0.002678,0.000431,0.031027
27006000,0.0324,0.013523,0.002678,0.000431,0.027267
27007000,0.0324,0.013523,0.002678,0.000431,0.004701
27008000,0.0324,0.013523,0.002678,0.000431,0.004701
27009000,0.0324,0.013523,0.002678,0.000431,0.035141
27010000,0.0324,0.013523,0.002678,0.000431,0.012340
27011000,0.0324,0.013523,0.002678,0.000431,0.034788
27012000,0.0324,0.013523,0.002678,0.000431,0.012223
27013000,0.0324,0.013523,0.002678,0.000431,0.004466
27014000,0.0324,0.013523,0.002678,0.000431,0.004701
27015000,0.0324,0.013523,0.002678,0.000431,0.004701
27016000,0.0324,0.013523,0.002678,0.000431,0.004936
27017000,0.0324,0.013523,0.002678,0.000431,0.050655
27018000,0.0324,0.013523,0.002678,0.000431,0.011400
27019000,0.0324,0.013523,0.002678,0.000431,0.004701
27020000,0.0324,0.013523,0.002678,0.000431,0.042310
27021000,0.0324,0.013523,0.002678,0.000431,0.004701
27022000,0.0324,0.013523,0.002678,0.000431,0.006817
27023000,0.0324,0.013523,0.002678,0.000431,0.037491
27024000,0.0324,0.013523,0.002678,0.000431,0.024563
27025000,0.0324,0.013523,0.002678,0.000431,0.102250
27026000,0.0324,0.013523,0.002678,0.000431,0.039254
27027000,0.0324,0.013523,0.002678,0.000431,0.007757
27028000,0.0324,0.013523,0.002678,0.000431,0.032908
27029000,0.0324,0.013523,0.002678,0.000431,0.021625
27030000,0.0324,0.013523,0.002678,0.000431,0.122699
27031000,0.0324,0.013523,0.002678,0.000431,0.007052
27032000,0.0324,0.013523,0.002678,0.000431,0.004701
27033000,0.0324,0.013523,0.002678,0.000431,0.019745
27034000,0.0324,0.013523,0.002678,0.000431,0.004701
27035000,0.0324,0.013523,0.002678,0.000431,0.004701
27036000,0.0324,0.013523,0.002678,0.000431,0.004584
27037000,0.0324,0.013523,0.002678,0.000431,0.019627
27038000,0.0324,0.013523,0.002678,0.000431,0.004701
27039000,0.0324,0.013523,0.002678,0.000431,0.012223
27040000,0.0324,0.013523,0.002678,0.000431,0.004701
27041000,0.0324,0.013523,0.002678,0.000431,0.004466
27042000,0.0324,0.013523,0.002678,0.000431,0.004701
27043000,0.0324,0.013523,0.002678,0.000431,0.012223
27044000,0.0324,0.013523,0.002678,0.000431,0.027149
27045000,0.0324,0.013523,0.002678,0.000431,0.005054
27046000,0.0324,0.013523,0.002678,0.000431,0.026561
27047000,0.0324,0.013523,0.002678,0.000431,0.004701
27048000,0.0324,0.013523,0.002678,0.000431,0.034788
27049000,0.0324,0.013523,0.002678,0.000431,0.029382
27050000,0.0324,0.013523,0.002678,0.000431,0.004701
27051000,0.0324,0.013523,0.002678,0.000431,0.004701
27052000,0.0324,0.013523,0.002678,0.000431,0.057354
27053000,0.0324,0.013523,0.002678,0.000431,0.004584
27054000,0.0324,0.013523,0.002678,0.000431,0.086971
27055000,0.0324,0.013523,0.002678,0.000431,0.004819
27056000,0.0324,0.013523,0.002678,0.000431,0.004701
27057000,0.0324,0.013523,0.002678,0.000431,0.004701
27058000,0.0324,0.013523,0.002678,0.000431,0.019745
27059000,0.0324,0.013523,0.002678,0.000431,0.019745
27060000,0.0324,0.013523,0.002678,0.000431,0.004701
27061000,0.0324,0.013523,0.002678,0.000431,0.057354
27062000,0.0324,0.013523,0.002678,0.000431,0.088616
27063000,0.0324,0.013523,0.002678,0.000431,0.011048
27064000,0.0324,0.013523,0.002678,0.000431,0.004701
27065000,0.0324,0.013523,0.002678,0.000431,0.034788
27066000,0.0324,0.013523,0.002678,0.000431,0.004701
27067000,0.0324,0.013523,0.002678,0.000431,0.027267
27068000,0.0324,0.013523,0.002678,0.000431,0.004701
27069000,0.0324,0.013523,0.002678,0.000431,0.035376
27070000,0.0324,0.013523,0.002678,0.000431,0.019157
27071000,0.0324,0.013523,0.002678,0.000431,0.049009
27072000,0.0324,0.013523,0.002678,0.000431,0.043133
27073000,0.0324,0.013523,0.002678,0.000431,0.015984
27074000,0.0324,0.013523,0.002678,0.000431,0.015984
27075000,0.0324,0.013523,0.002678,0.000431,0.008697
27076000,0.0324,0.013523,0.002678,0.000431,0.015749
27077000,0.0324,0.013523,0.002678,0.000431,0.004466
27078000,0.0324,0.013523,0.002678,0.000431,0.004701
27079000,0.0324,0.013523,0.002678,0.000431,0.004701
27080000,0.0324,0.013523,0.002678,0.000431,0.034788
27081000,0.0324,0.013523,0.002678,0.000431,0.004701
27082000,0.0324,0.013523,0.002678,0.000431,0.117528
27083000,0.0324,0.013523,0.002678,0.000431,0.004701
27084000,0.0324,0.013523,0.002678,0.000431,0.042545
27085000,0.0324,0.013523,0.002678,0.000431,0.004701
27086000,0.0324,0.013523,0.002678,0.000431,0.037844
27087000,0.0324,0.013523,0.002678,0.000431,0.094023
27088000,0.0324,0.013523,0.002678,0.000431,0.004701
27089000,0.0324,0.013523,0.002678,0.000431,0.004701
27090000,0.0324,0.013523,0.002678,0.000431,0.006347
27091000,0.0324,0.013523,0.002678,0.000431,0.130691
27092000,0.0324,0.013523,0.002678,0.000431,0.012223
27093000,0.0324,0.013523,0.002678,0.000431,0.042310
27094000,0.0324,0.013523,0.002678,0.000431,0.004701
27095000,0.0324,0.013523,0.002678,0.000431,0.004701
27096000,0.0324,0.013523,0.002678,0.000431,0.004701
27097000,0.0324,0.013523,0.002678,0.000431,0.004701
27098000,0.0324,0.013523,0.002678,0.000431,0.004701
27099000,0.0324,0.013523,0.002678,0.000431,0.019745
27100000,0.0324,0.013523,0.002678,0.000431,0.004701
27101000,0.0324,0.013523,0.002678,0.000431,0.004701
27102000,0.0324,0.013523,0.002678,0.000431,0.004701
27103000,0.0324,0.013523,0.002678,0.000431,0.004701
27104000,0.0324,0.013523,0.002678,0.000431,0.004701
27105000,0.0324,0.013523,0.002678,0.000431,0.012223
27106000,0.0324,0.013523,0.002678,0.000431,0.057354
27107000,0.0324,0.013523,0.002678,0.000431,0.004701
27108000,0.0324,0.013523,0.002678,0.000431,0.004701
27109000,0.0324,0.013523,0.002678,0.000431,0.004701
27110000,0.0324,0.013523,0.002678,0.000431,0.004701
27111000,0.0324,0.013523,0.002678,0.000431,0.094728
27112000,0.0324,0.013523,0.002678,0.000431,0.065111
27113000,0.0324,0.013523,0.002678,0.000431,0.004701
27114000,0.0324,0.013523,0.002678,0.000431,0.032438
27115000,0.0324,0.013523,0.002678,0.000431,0.004701
27116000,0.0324,0.013523,0.002678,0.000431,0.004349
27117000,0.0324,0.013523,0.002678,0.000431,0.019627
27118000,0.0324,0.013523,0.002678,0.000431,0.042310
27119000,0.0324,0.013523,0.002678,0.000431,0.034788
27120000,0.0324,0.013523,0.002678,0.000431,0.004701
27121000,0.0324,0.013523,0.002678,0.000431,0.004701
27122000,0.0324,0.013523,0.002678,0.000431,0.004701
27123000,0.0324,0.013523,0.002678,0.000431,0.012223
27124000,0.0324,0.013523,0.002678,0.000431,0.013046
27125000,0.0324,0.013523,0.002678,0.000431,0.011400
27126000,0.0324,0.013523,0.002678,0.000431,0.004466
27127000,0.0324,0.013523,0.002678,0.000431,0.004701
27128000,0.0324,0.013523,0.002678,0.000431,0.004701
27129000,0.0324,0.013523,0.002678,0.000431,0.004701
27130000,0.0324,0.013523,0.002678,0.000431,0.004701
27131000,0.0324,0.013523,0.002678,0.000431,0.012105
27132000,0.0324,0.013523,0.002678,0.000431,0.004584
27133000,0.0324,0.013523,0.002678,0.000431,0.004701
27134000,0.0324,0.013523,0.002678,0.000431,0.004701
27135000,0.0324,0.013523,0.002678,0.000431,0.023506
27136000,0.0324,0.013523,0.002678,0.000431,0.114237
27137000,0.0324,0.013523,0.002678,0.000431,0.004701
27138000,0.0324,0.013523,0.002678,0.000431,0.027267
27139000,0.0324,0.013523,0.002678,0.000431,0.004701
27140000,0.0324,0.013523,0.002678,0.000431,0.004701
27141000,0.0324,0.013523,0.002678,0.000431,0.004701
27142000,0.0324,0.013523,0.002678,0.000431,0.027267
27143000,0.0324,0.013523,0.002678,0.000431,0.004701
27144000,0.0324,0.013523,0.002678,0.000431,0.060292
27145000,0.0324,0.013523,0.002678,0.000431,0.069694
27146000,0.0324,0.013523,0.002678,0.000431,0.004701
27147000,0.0324,0.013523,0.002678,0.000431,0.004701
27148000,0.0324,0.013523,0.002678,0.000431,0.034788
27149000,0.0324,0.013523,0.002678,0.000431,0.004701
27150000,0.0324,0.013523,0.002678,0.000431,0.019745
27151000,0.0324,0.013523,0.002678,0.000431,0.125520
27152000,0.0324,0.013523,0.002678,0.000431,0.004701
27153000,0.0324,0.013523,0.002678,0.000431,0.004701
27154000,0.0324,0.013523,0.002678,0.000431,0.009872
27155000,0.0324,0.013523,0.002678,0.000431,0.014573
27156000,0.0324,0.013523,0.002678,0.000431,0.010107
27157000,0.0324,0.013523,0.002678,0.000431,0.081565
27158000,0.0324,0.013523,0.002678,0.000431,0.019745
27159000,0.0324,0.013523,0.002678,0.000431,0.004701
27160000,0.0324,0.013523,0.002678,0.000431,0.004701
27161000,0.0324,0.013523,0.002678,0.000431,0.153374
27162000,0.0324,0.013523,0.002678,0.000431,0.013986
27163000,0.0324,0.013523,0.002678,0.000431,0.049832
27164000,0.0324,0.013523,0.002678,0.000431,0.004231
27165000,0.0324,0.013523,0.002678,0.000431,0.004701
27166000,0.0324,0.013523,0.002678,0.000431,0.004701
27167000,0.0324,0.013523,0.002678,0.000431,0.004701
27168000,0.0324,0.013523,0.002678,0.000431,0.049832
27169000,0.0324,0.013523,0.002678,0.000431,0.011283
27170000,0.0324,0.013523,0.002678,0.000431,0.020685
27171000,0.0324,0.013523,0.002678,0.000431,0.004701
27172000,0.0324,0.013523,0.002678,0.000431,0.004701
27173000,0.0324,0.013523,0.002678,0.000431,0.004701
27174000,0.0324,0.013523,0.002678,0.000431,0.042310
27175000,0.0324,0.013523,0.002678,0.000431,0.004701
27176000,0.0324,0.013523,0.002678,0.000431,0.012223
27177000,0.0324,0.013523,0.002678,0.000431,0.064876
27178000,0.0324,0.013523,0.002678,0.000431,0.004701
27179000,0.0324,0.013523,0.002678,0.000431,0.004701
27180000,0.0324,0.013523,0.002678,0.000431,0.018217
27181000,0.0324,0.013523,0.002678,0.000431,0.073690
27182000,0.0324,0.013523,0.002678,0.000431,0.004701
27183000,0.0324,0.013523,0.002678,0.000431,0.050067
27184000,0.0324,0.013523,0.002678,0.000431,0.004701
27185000,0.0324,0.013523,0.002678,0.000431,0.004701
27186000,0.0324,0.013523,0.002678,0.000431,0.004701
27187000,0.0324,0.013523,0.002678,0.000431,0.012223
27188000,0.0324,0.013523,0.002678,0.000431,0.004701
27189000,0.0324,0.013523,0.002678,0.000431,0.065111
27190000,0.0324,0.013523,0.002678,0.000431,0.004701
27191000,0.0324,0.013523,0.002678,0.000431,0.004701
27192000,0.0324,0.013523,0.002678,0.000431,0.004466
27193000,0.0324,0.013523,0.002678,0.000431,0.014573
27194000,0.0324,0.013523,0.002678,0.000431,0.009872
27195000,0.0324,0.013523,0.002678,0.000431,0.004701
27196000,0.0324,0.013523,0.002678,0.000431,0.027502
27197000,0.0324,0.013523,0.002678,0.000431,0.004701
27198000,0.0324,0.013523,0.002678,0.000431,0.004701
27199000,0.0324,0.013523,0.002678,0.000431,0.004701
27200000,0.0324,0.013523,0.002678,0.000431,0.004701
27201000,0.0324,0.013523,0.002678,0.000431,0.004701
27202000,0.0324,0.013523,0.002678,0.000431,0.094963
27203000,0.0324,0.013523,0.002678,0.000431,0.034788
27204000,0.0324,0.013523,0.002678,0.000431,0.004231
27205000,0.0324,0.013523,0.002678,0.000431,0.004701
27206000,0.0324,0.013523,0.002678,0.000431,0.004701
27207000,0.0324,0.013523,0.002678,0.000431,0.012223
27208000,0.0324,0.013523,0.002678,0.000431,0.004701
27209000,0.0324,0.013523,0.002678,0.000431,0.012223
27210000,0.0324,0.013523,0.002678,0.000431,0.004701
27211000,0.0324,0.013523,0.002678,0.000431,0.004701
27212000,0.0324,0.013523,0.002678,0.000431,0.004701
27213000,0.0324,0.013523,0.002678,0.000431,0.034788
27214000,0.0324,0.013523,0.002678,0.000431,0.027267
27215000,0.0324,0.013523,0.002678,0.000431,0.004701
27216000,0.0324,0.013523,0.002678,0.000431,0.027149
27217000,0.0324,0.013523,0.002678,0.000431,0.004584
27218000,0.0324,0.013523,0.002678,0.000431,0.004701
27219000,0.0324,0.013523,0.002678,0.000431,0.004701
27220000,0.0324,0.013523,0.002678,0.000431,0.042545
27221000,0.0324,0.013523,0.002678,0.000431,0.127988
27222000,0.0324,0.013523,0.002678,0.000431,0.054416
27223000,0.0324,0.013523,0.002678,0.000431,0.004701
27224000,0.0324,0.013523,0.002678,0.000431,0.004701
27225000,0.0324,0.013523,0.002678,0.000431,0.008109
27226000,0.0324,0.013523,0.002678,0.000431,0.143972
27227000,0.0324,0.013523,0.002678,0.000431,0.004701
27228000,0.0324,0.013523,0.002678,0.000431,0.049832
27229000,0.0324,0.013523,0.002678,0.000431,0.004701
27230000,0.0324,0.013523,0.002678,0.000431,0.004701
27231000,0.0324,0.013523,0.002678,0.000431,0.004701
27232000,0.0324,0.013523,0.002678,0.000431,0.004936
27233000,0.0324,0.013523,0.002678,0.000431,0.004701
27234000,0.0324,0.013523,0.002678,0.000431,0.027502
27235000,0.0324,0.013523,0.002678,0.000431,0.004701
27236000,0.0324,0.013523,0.002678,0.000431,0.004701
27237000,0.0324,0.013523,0.002678,0.000431,0.004701
27238000,0.0324,0.013523,0.002678,0.000431,0.004701
27239000,0.0324,0.013523,0.002678,0.000431,0.004466
27240000,0.0324,0.013523,0.002678,0.000431,0.049009
27241000,0.0324,0.013523,0.002678,0.000431,0.013046
27242000,0.0324,0.013523,0.002678,0.000431,0.004701
27243000,0.0324,0.013523,0.002678,0.000431,0.007052
27244000,0.0324,0.013523,0.002678,0.000431,0.004584
27245000,0.0324,0.013523,0.002678,0.000431,0.004584
27246000,0.0324,0.013523,0.002678,0.000431,0.019745
27247000,0.0324,0.013523,0.002678,0.000431,0.004701
27248000,0.0324,0.013523,0.002678,0.000431,0.004584
27249000,0.0324,0.013523,0.002678,0.000431,0.012105
27250000,0.0324,0.013523,0.002678,0.000431,0.004701
27251000,0.0324,0.013523,0.002678,0.000431,0.004701
27252000,0.0324,0.013523,0.002678,0.000431,0.006934
27253000,0.0324,0.013523,0.002678,0.000431,0.100016
27254000,0.0324,0.013523,0.002678,0.000431,0.004701
27255000,0.0324,0.013523,0.002678,0.000431,0.008462
27256000,0.0324,0.013523,0.002678,0.000431,0.008462
27257000,0.0324,0.013523,0.002678,0.000431,0.004701
27258000,0.0324,0.013523,0.002678,0.000431,0.004701
27259000,0.0324,0.013523,0.002678,0.000431,0.008462
27260000,0.0324,0.013523,0.002678,0.000431,0.023506
27261000,0.0324,0.013523,0.002678,0.000431,0.004701
27262000,0.0324,0.013523,0.002678,0.000431,0.004701
27263000,0.0324,0.013523,0.002678,0.000431,0.004701
27264000,0.0324,0.013523,0.002678,0.000431,0.004701
27265000,0.0324,0.013523,0.002678,0.000431,0.015279
27266000,0.0324,0.013523,0.002678,0.000431,0.046776
27267000,0.0324,0.013523,0.002678,0.000431,0.004701
27268000,0.0324,0.013523,0.002678,0.000431,0.004701
27269000,0.0324,0.013523,0.002678,0.000431,0.004701
27270000,0.0324,0.013523,0.002678,0.000431,0.004701
27271000,0.0324,0.013523,0.002678,0.000431,0.004701
27272000,0.0324,0.013523,0.002678,0.000431,0.022683
27273000,0.0324,0.013523,0.002678,0.000431,0.024328
27274000,0.0324,0.013523,0.002678,0.000431,0.004701
27275000,0.0324,0.013523,0.002678,0.000431,0.004701
27276000,0.0324,0.013523,0.002678,0.000431,0.004701
27277000,0.0324,0.013523,0.002678,0.000431,0.004701
27278000,0.0324,0.013523,0.002678,0.000431,0.004701
27279000,0.0324,0.013523,0.002678,0.000431,0.109301
27280000,0.0324,0.013523,0.002678,0.000431,0.013163
27281000,0.0324,0.013523,0.002678,0.000431,0.012223
27282000,0.0324,0.013523,0.002678,0.000431,0.004701
27283000,0.0324,0.013523,0.002678,0.000431,0.004701
27284000,0.0324,0.013523,0.002678,0.000431,0.004584
27285000,0.0324,0.013523,0.002678,0.000431,0.053945
27286000,0.0324,0.013523,0.002678,0.000431,0.075923
27287000,0.0324,0.013523,0.002678,0.000431,0.028207
27288000,0.0324,0.013523,0.002678,0.000431,0.093787
27289000,0.0324,0.013523,0.002678,0.000431,0.004701
27290000,0.0324,0.013523,0.002678,0.000431,0.004701
27291000,0.0324,0.013523,0.002678,0.000431,0.004466
27292000,0.0324,0.013523,0.002678,0.000431,0.035023
27293000,0.0324,0.013523,0.002678,0.000431,0.004701
27294000,0.0324,0.013523,0.002678,0.000431,0.004701
27295000,0.0324,0.013523,0.002678,0.000431,0.132572
27296000,0.0324,0.013523,0.002678,0.000431,0.019745
27297000,0.0324,0.013523,0.002678,0.000431,0.004701
27298000,0.0324,0.013523,0.002678,0.000431,0.012223
27299000,0.0324,0.013523,0.002678,0.000431,0.004584
27300000,0.0324,0.013523,0.002678,0.000431,0.004584
27301000,0.0324,0.013523,0.002678,0.000431,0.026091
27302000,0.0324,0.013523,0.002678,0.000431,0.066286
27303000,0.0324,0.013523,0.002678,0.000431,0.004701
27304000,0.0324,0.013523,0.002678,0.000431,0.008462
27305000,0.0324,0.013523,0.002678,0.000431,0.061115
27306000,0.0324,0.013523,0.002678,0.000431,0.004701
27307000,0.0324,0.013523,0.002678,0.000431,0.004701
27308000,0.0324,0.013523,0.002678,0.000431,0.004936
27309000,0.0324,0.013523,0.002678,0.000431,0.004701
27310000,0.0324,0.013523,0.002678,0.000431,0.004701
27311000,0.0324,0.013523,0.002678,0.000431,0.057824
27312000,0.0324,0.013523,0.002678,0.000431,0.027031
27313000,0.0324,0.013523,0.002678,0.000431,0.004701
27314000,0.0324,0.013523,0.002678,0.000431,0.015044
27315000,0.0324,0.013523,0.002678,0.000431,0.047011
27316000,0.0324,0.013523,0.002678,0.000431,0.031968
27317000,0.0324,0.013523,0.002678,0.000431,0.090262
27318000,0.0324,0.013523,0.002678,0.000431,0.034788
27319000,0.0324,0.013523,0.002678,0.000431,0.004466
27320000,0.0324,0.013523,0.002678,0.000431,0.004701
27321000,0.0324,0.013523,0.002678,0.000431,0.004701
27322000,0.0324,0.013523,0.002678,0.000431,0.004701
27323000,0.0324,0.013523,0.002678,0.000431,0.034671
27324000,0.0324,0.013523,0.002678,0.000431,0.012105
27325000,0.0324,0.013523,0.002678,0.000431,0.034788
27326000,0.0324,0.013523,0.002678,0.000431,0.004701
27327000,0.0324,0.013523,0.002678,0.000431,0.004701
27328000,0.0324,0.013523,0.002678,0.000431,0.004701
27329000,0.0324,0.013523,0.002678,0.000431,0.004819
27330000,0.0324,0.013523,0.002678,0.000431,0.010930
27331000,0.0324,0.013523,0.002678,0.000431,0.149026
27332000,0.0324,0.013523,0.002678,0.000431,0.004701
27333000,0.0324,0.013523,0.002678,0.000431,0.004701
27334000,0.0324,0.013523,0.002678,0.000431,0.004701
27335000,0.0324,0.013523,0.002678,0.000431,0.004701
27336000,0.0324,0.013523,0.002678,0.000431,0.004936
27337000,0.0324,0.013523,0.002678,0.000431,0.038549
27338000,0.0324,0.013523,0.002678,0.000431,0.023506
27339000,0.0324,0.013523,0.002678,0.000431,0.004701
27340000,0.0324,0.013523,0.002678,0.000431,0.004701
27341000,0.0324,0.013523,0.002678,0.000431,0.004701
27342000,0.0324,0.013523,0.002678,0.000431,0.012223
27343000,0.0324,0.013523,0.002678,0.000431,0.004701
27344000,0.0324,0.013523,0.002678,0.000431,0.004466
27345000,0.0324,0.013523,0.002678,0.000431,0.004701
27346000,0.0324,0.013523,0.002678,0.000431,0.004701
27347000,0.0324,0.013523,0.002678,0.000431,0.004701
27348000,0.0324,0.013523,0.002678,0.000431,0.004701
27349000,0.0324,0.013523,0.002678,0.000431,0.042545
27350000,0.0324,0.013523,0.002678,0.000431,0.012223
27351000,0.0324,0.013523,0.002678,0.000431,0.004701
27352000,0.0324,0.013523,0.002678,0.000431,0.004701
27353000,0.0324,0.013523,0.002678,0.000431,0.004701
27354000,0.0324,0.013523,0.002678,0.000431,0.042310
27355000,0.0324,0.013523,0.002678,0.000431,0.004701
27356000,0.0324,0.013523,0.002678,0.000431,0.012223
27357000,0.0324,0.013523,0.002678,0.000431,0.004701
27358000,0.0324,0.013523,0.002678,0.000431,0.004701
27359000,0.0324,0.013523,0.002678,0.000431,0.004584
27360000,0.0324,0.013523,0.002678,0.000431,0.004584
27361000,0.0324,0.013523,0.002678,0.000431,0.005759
27362000,0.0324,0.013523,0.002678,0.000431,0.098606
27363000,0.0324,0.013523,0.002678,0.000431,0.014809
27364000,0.0324,0.013523,0.002678,0.000431,0.004701
27365000,0.0324,0.013523,0.002678,0.000431,0.004701
27366000,0.0324,0.013523,0.002678,0.000431,0.004701
27367000,0.0324,0.013523,0.002678,0.000431,0.004701
27368000,0.0324,0.013523,0.002678,0.000431,0.008462
27369000,0.0324,0.013523,0.002678,0.000431,0.008462
27370000,0.0324,0.013523,0.002678,0.000431,0.004701
27371000,0.0324,0.013523,0.002678,0.000431,0.004584
27372000,0.0324,0.013523,0.002678,0.000431,0.016454
27373000,0.0324,0.013523,0.002678,0.000431,0.037962
27374000,0.0324,0.013523,0.002678,0.000431,0.009520
27375000,0.0324,0.013523,0.002678,0.000431,0.083092
27376000,0.0324,0.013523,0.002678,0.000431,0.004701
27377000,0.0324,0.013523,0.002678,0.000431,0.004701
27378000,0.0324,0.013523,0.002678,0.000431,0.004701
27379000,0.0324,0.013523,0.002678,0.000431,0.004701
27380000,0.0324,0.013523,0.002678,0.000431,0.004701
27381000,0.0324,0.013523,0.002678,0.000431,0.059939
27382000,0.0324,0.013523,0.002678,0.000431,0.054768
27383000,0.0324,0.013523,0.002678,0.000431,0.004701
27384000,0.0324,0.013523,0.002678,0.000431,0.004349
27385000,0.0324,0.013523,0.002678,0.000431,0.024211
27386000,0.0324,0.013523,0.002678,0.000431,0.015161
27387000,0.0324,0.013523,0.002678,0.000431,0.004466
27388000,0.0324,0.013523,0.002678,0.000431,0.004701
27389000,0.0324,0.013523,0.002678,0.000431,0.004701
27390000,0.0324,0.013523,0.002678,0.000431,0.004701
27391000,0.0324,0.013523,0.002678,0.000431,0.019745
27392000,0.0324,0.013523,0.002678,0.000431,0.004701
27393000,0.0324,0.013523,0.002678,0.000431,0.004701
27394000,0.0324,0.013523,0.002678,0.000431,0.104365
27395000,0.0324,0.013523,0.002678,0.000431,0.137978
27396000,0.0324,0.013523,0.002678,0.000431,0.004701
27397000,0.0324,0.013523,0.002678,0.000431,0.004701
27398000,0.0324,0.013523,0.002678,0.000431,0.004701
27399000,0.0324,0.013523,0.002678,0.000431,0.004584
27400000,0.0324,0.013523,0.002678,0.000431,0.046659
27401000,0.0324,0.013523,0.002678,0.000431,0.143384
27402000,0.0324,0.013523,0.002678,0.000431,0.004701
27403000,0.0324,0.013523,0.002678,0.000431,0.004701
27404000,0.0324,0.013523,0.002678,0.000431,0.004701
27405000,0.0324,0.013523,0.002678,0.000431,0.004701
27406000,0.0324,0.013523,0.002678,0.000431,0.004701
27407000,0.0324,0.013523,0.002678,0.000431,0.018217
27408000,0.0324,0.013523,0.002678,0.000431,0.006229
27409000,0.0324,0.013523,0.002678,0.000431,0.012223
27410000,0.0324,0.013523,0.002678,0.000431,0.004701
27411000,0.0324,0.013523,0.002678,0.000431,0.004701
27412000,0.0324,0.013523,0.002678,0.000431,0.004701
27413000,0.0324,0.013523,0.002678,0.000431,0.004701
27414000,0.0324,0.013523,0.002678,0.000431,0.027502
27415000,0.0324,0.013523,0.002678,0.000431,0.004701
27416000,0.0324,0.013523,0.002678,0.000431,0.012223
27417000,0.0324,0.013523,0.002678,0.000431,0.012223
27418000,0.0324,0.013523,0.002678,0.000431,0.004701
27419000,0.0324,0.013523,0.002678,0.000431,0.007169
27420000,0.0324,0.013523,0.002678,0.000431,0.017277
27421000,0.0324,0.013523,0.002678,0.000431,0.004701
27422000,0.0324,0.013523,0.002678,0.000431,0.004701
27423000,0.0324,0.013523,0.002678,0.000431,0.106010
27424000,0.0324,0.013523,0.002678,0.000431,0.008462
27425000,0.0324,0.013523,0.002678,0.000431,0.004701
27426000,0.0324,0.013523,0.002678,0.000431,0.006464
27427000,0.0324,0.013523,0.002678,0.000431,0.048069
27428000,0.0324,0.013523,0.002678,0.000431,0.027267
27429000,0.0324,0.013523,0.002678,0.000431,0.004701
27430000,0.0324,0.013523,0.002678,0.000431,0.004701
27431000,0.0324,0.013523,0.002678,0.000431,0.004701
27432000,0.0324,0.013523,0.002678,0.000431,0.019157
27433000,0.0324,0.013523,0.002678,0.000431,0.076628
27434000,0.0324,0.013523,0.002678,0.000431,0.046189
27435000,0.0324,0.013523,0.002678,0.000431,0.065111
27436000,0.0324,0.013523,0.002678,0.000431,0.034671
27437000,0.0324,0.013523,0.002678,0.000431,0.004584
27438000,0.0324,0.013523,0.002678,0.000431,0.004701
27439000,0.0324,0.013523,0.002678,0.000431,0.004584
27440000,0.0324,0.013523,0.002678,0.000431,0.004349
27441000,0.0324,0.013523,0.002678,0.000431,0.012223
27442000,0.0324,0.013523,0.002678,0.000431,0.049832
27443000,0.0324,0.013523,0.002678,0.000431,0.004701
27444000,0.0324,0.013523,0.002678,0.000431,0.004701
27445000,0.0324,0.013523,0.002678,0.000431,0.065111
27446000,0.0324,0.013523,0.002678,0.000431,0.008462
27447000,0.0324,0.013523,0.002678,0.000431,0.015866
27448000,0.0324,0.013523,0.002678,0.000431,0.004819
27449000,0.0324,0.013523,0.002678,0.000431,0.004701
27450000,0.0324,0.013523,0.002678,0.000431,0.016101
27451000,0.0324,0.013523,0.002678,0.000431,0.046189
27452000,0.0324,0.013523,0.002678,0.000431,0.004701
27453000,0.0324,0.013523,0.002678,0.000431,0.004701
27454000,0.0324,0.013523,0.002678,0.000431,0.004701
27455000,0.0324,0.013523,0.002678,0.000431,0.004701
27456000,0.0324,0.013523,0.002678,0.000431,0.004701
27457000,0.0324,0.013523,0.002678,0.000431,0.034788
27458000,0.0324,0.013523,0.002678,0.000431,0.004701
27459000,0.0324,0.013523,0.002678,0.000431,0.004701
27460000,0.0324,0.013523,0.002678,0.000431,0.012223
27461000,0.0324,0.013523,0.002678,0.000431,0.034788
27462000,0.0324,0.013523,0.002678,0.000431,0.004701
27463000,0.0324,0.013523,0.002678,0.000431,0.004701
27464000,0.0324,0.013523,0.002678,0.000431,0.004701
27465000,0.0324,0.013523,0.002678,0.000431,0.004701
27466000,0.0324,0.013523,0.002678,0.000431,0.004701
27467000,0.0324,0.013523,0.002678,0.000431,0.004701
27468000,0.0324,0.013523,0.002678,0.000431,0.004701
27469000,0.0324,0.013523,0.002678,0.000431,0.004701
27470000,0.0324,0.013523,0.002678,0.000431,0.004701
27471000,0.0324,0.013523,0.002678,0.000431,0.042193
27472000,0.0324,0.013523,0.002678,0.000431,0.004584
27473000,0.0324,0.013523,0.002678,0.000431,0.015866
27474000,0.0324,0.013523,0.002678,0.000431,0.023623
27475000,0.0324,0.013523,0.002678,0.000431,0.004701
27476000,0.0324,0.013523,0.002678,0.000431,0.004701
27477000,0.0324,0.013523,0.002678,0.000431,0.008462
27478000,0.0324,0.013523,0.002678,0.000431,0.015984
27479000,0.0324,0.013523,0.002678,0.000431,0.004584
27480000,0.0324,0.013523,0.002678,0.000431,0.019627
27481000,0.0324,0.013523,0.002678,0.000431,0.004701
27482000,0.0324,0.013523,0.002678,0.000431,0.004701
27483000,0.0324,0.013523,0.002678,0.000431,0.004701
27484000,0.0324,0.013523,0.002678,0.000431,0.012223
27485000,0.0324,0.013523,0.002678,0.000431,0.004701
27486000,0.0324,0.013523,0.002678,0.000431,0.072162
27487000,0.0324,0.013523,0.002678,0.000431,0.004701
27488000,0.0324,0.013523,0.002678,0.000431,0.004701
27489000,0.0324,0.013523,0.002678,0.000431,0.004701
27490000,0.0324,0.013523,0.002678,0.000431,0.031027
27491000,0.0324,0.013523,0.002678,0.000431,0.008462
27492000,0.0324,0.013523,0.002678,0.000431,0.016219
27493000,0.0324,0.013523,0.002678,0.000431,0.121054
27494000,0.0324,0.013523,0.002678,0.000431,0.004701
27495000,0.0324,0.013523,0.002678,0.000431,0.004701
27496000,0.0324,0.013523,0.002678,0.000431,0.004701
27497000,0.0324,0.013523,0.002678,0.000431,0.087206
27498000,0.0324,0.013523,0.002678,0.000431,0.004701
27499000,0.0324,0.013523,0.002678,0.000431,0.028677
27500000,0.0324,0.013523,0.002678,0.000431,0.010813
27501000,0.0324,0.013523,0.002678,0.000431,0.004701
27502000,0.0324,0.013523,0.002678,0.000431,0.004701
27503000,0.0324,0.013523,0.002678,0.000431,0.017042
27504000,0.0324,0.013523,0.002678,0.000431,0.022683
27505000,0.0324,0.013523,0.002678,0.000431,0.012223
27506000,0.0324,0.013523,0.002678,0.000431,0.072397
27507000,0.0324,0.013523,0.002678,0.000431,0.004701
27508000,0.0324,0.013523,0.002678,0.000431,0.004701
27509000,0.0324,0.013523,0.002678,0.000431,0.004701
27510000,0.0324,0.013523,0.002678,0.000431,0.019745
27511000,0.0324,0.013523,0.002678,0.000431,0.004584
27512000,0.0324,0.013523,0.002678,0.000431,0.015866
27513000,0.0324,0.013523,0.002678,0.000431,0.008462
27514000,0.0324,0.013523,0.002678,0.000431,0.004701
27515000,0.0324,0.013523,0.002678,0.000431,0.004701
27516000,0.0324,0.013523,0.002678,0.000431,0.064876
27517000,0.0324,0.013523,0.002678,0.000431,0.004701
27518000,0.0324,0.013523,0.002678,0.000431,0.009285
27519000,0.0324,0.013523,0.002678,0.000431,0.045248
27520000,0.0324,0.013523,0.002678,0.000431,0.004701
27521000,0.0324,0.013523,0.002678,0.000431,0.004701
27522000,0.0324,0.013523,0.002678,0.000431,0.055473
27523000,0.0324,0.013523,0.002678,0.000431,0.029147
27524000,0.0324,0.013523,0.002678,0.000431,0.004701
27525000,0.0324,0.013523,0.002678,0.000431,0.012223
27526000,0.0324,0.013523,0.002678,0.000431,0.004466
27527000,0.0324,0.013523,0.002678,0.000431,0.004701
27528000,0.0324,0.013523,0.002678,0.000431,0.004701
27529000,0.0324,0.013523,0.002678,0.000431,0.027267
27530000,0.0324,0.013523,0.002678,0.000431,0.004701
27531000,0.0324,0.013523,0.002678,0.000431,0.038667
27532000,0.0324,0.013523,0.002678,0.000431,0.031145
27533000,0.0324,0.013523,0.002678,0.000431,0.004701
27534000,0.0324,0.013523,0.002678,0.000431,0.004701
27535000,0.0324,0.013523,0.002678,0.000431,0.004701
27536000,0.0324,0.013523,0.002678,0.000431,0.004349
27537000,0.0324,0.013523,0.002678,0.000431,0.004584
27538000,0.0324,0.013523,0.002678,0.000431,0.027267
27539000,0.0324,0.013523,0.002678,0.000431,0.004701
27540000,0.0324,0.013523,0.002678,0.000431,0.004701
27541000,0.0324,0.013523,0.002678,0.000431,0.007052
27542000,0.0324,0.013523,0.002678,0.000431,0.017394
27543000,0.0324,0.013523,0.002678,0.000431,0.004701
27544000,0.0324,0.013523,0.002678,0.000431,0.074630
27545000,0.0324,0.013523,0.002678,0.000431,0.017512
27546000,0.0324,0.013523,0.002678,0.000431,0.004466
27547000,0.0324,0.013523,0.002678,0.000431,0.004701
27548000,0.0324,0.013523,0.002678,0.000431,0.019745
27549000,0.0324,0.013523,0.002678,0.000431,0.004701
27550000,0.0324,0.013523,0.002678,0.000431,0.006817
27551000,0.0324,0.013523,0.002678,0.000431,0.115413
27552000,0.0324,0.013523,0.002678,0.000431,0.079919
27553000,0.0324,0.013523,0.002678,0.000431,0.004701
27554000,0.0324,0.013523,0.002678,0.000431,0.004701
27555000,0.0324,0.013523,0.002678,0.000431,0.027267
27556000,0.0324,0.013523,0.002678,0.000431,0.004701
27557000,0.0324,0.013523,0.002678,0.000431,0.019745
27558000,0.0324,0.013523,0.002678,0.000431,0.042545
27559000,0.0324,0.013523,0.002678,0.000431,0.004701
27560000,0.0324,0.013523,0.002678,0.000431,0.004701
27561000,0.0324,0.013523,0.002678,0.000431,0.012458
27562000,0.0324,0.013523,0.002678,0.000431,0.004701
27563000,0.0324,0.013523,0.002678,0.000431,0.004701
27564000,0.0324,0.013523,0.002678,0.000431,0.008462
27565000,0.0324,0.013523,0.002678,0.000431,0.008462
27566000,0.0324,0.013523,0.002678,0.000431,0.004701
27567000,0.0324,0.013523,0.002678,0.000431,0.019745
27568000,0.0324,0.013523,0.002678,0.000431,0.004701
27569000,0.0324,0.013523,0.002678,0.000431,0.004701
27570000,0.0324,0.013523,0.002678,0.000431,0.019745
27571000,0.0324,0.013523,0.002678,0.000431,0.004701
27572000,0.0324,0.013523,0.002678,0.000431,0.004701
27573000,0.0324,0.013523,0.002678,0.000431,0.004701
27574000,0.0324,0.013523,0.002678,0.000431,0.035023
27575000,0.0324,0.013523,0.002678,0.000431,0.004701
27576000,0.0324,0.013523,0.002678,0.000431,0.004466
27577000,0.0324,0.013523,0.002678,0.000431,0.004466
27578000,0.0324,0.013523,0.002678,0.000431,0.004584
27579000,0.0324,0.013523,0.002678,0.000431,0.011870
27580000,0.0324,0.013523,0.002678,0.000431,0.064876
27581000,0.0324,0.013523,0.002678,0.000431,0.004701
27582000,0.0324,0.013523,0.002678,0.000431,0.004701
27583000,0.0324,0.013523,0.002678,0.000431,0.072397
27584000,0.0324,0.013523,0.002678,0.000431,0.004701
27585000,0.0324,0.013523,0.002678,0.000431,0.004701
27586000,0.0324,0.013523,0.002678,0.000431,0.049832
27587000,0.0324,0.013523,0.002678,0.000431,0.027502
27588000,0.0324,0.013523,0.002678,0.000431,0.004701
27589000,0.0324,0.013523,0.002678,0.000431,0.012340
27590000,0.0324,0.013523,0.002678,0.000431,0.012340
27591000,0.0324,0.013523,0.002678,0.000431,0.004701
27592000,0.0324,0.013523,0.002678,0.000431,0.038549
27593000,0.0324,0.013523,0.002678,0.000431,0.015984
27594000,0.0324,0.013523,0.002678,0.000431,0.004701
27595000,0.0324,0.013523,0.002678,0.000431,0.004701
27596000,0.0324,0.013523,0.002678,0.000431,0.064876
27597000,0.0324,0.013523,0.002678,0.000431,0.012223
27598000,0.0324,0.013523,0.002678,0.000431,0.004701
27599000,0.0324,0.013523,0.002678,0.000431,0.027267
27600000,0.0324,0.013523,0.002678,0.000431,0.004701
27601000,0.0324,0.013523,0.002678,0.000431,0.004701
27602000,0.0324,0.013523,0.002678,0.000431,0.012223
27603000,0.0324,0.013523,0.002678,0.000431,0.004701
27604000,0.0324,0.013523,0.002678,0.000431,0.004701
27605000,0.0324,0.013523,0.002678,0.000431,0.015984
27606000,0.0324,0.013523,0.002678,0.000431,0.090967
27607000,0.0324,0.013523,0.002678,0.000431,0.004701
27608000,0.0324,0.013523,0.002678,0.000431,0.004819
27609000,0.0324,0.013523,0.002678,0.000431,0.042428
27610000,0.0324,0.013523,0.002678,0.000431,0.012223
27611000,0.0324,0.013523,0.002678,0.000431,0.004701
27612000,0.0324,0.013523,0.002678,0.000431,0.140094
27613000,0.0324,0.013523,0.002678,0.000431,0.012223
27614000,0.0324,0.013523,0.002678,0.000431,0.004701
27615000,0.0324,0.013523,0.002678,0.000431,0.057354
27616000,0.0324,0.013523,0.002678,0.000431,0.027031
27617000,0.0324,0.013523,0.002678,0.000431,0.004466
27618000,0.0324,0.013523,0.002678,0.000431,0.004584
27619000,0.0324,0.013523,0.002678,0.000431,0.057236
27620000,0.0324,0.013523,0.002678,0.000431,0.004701
27621000,0.0324,0.013523,0.002678,0.000431,0.004701
27622000,0.0324,0.013523,0.002678,0.000431,0.004936
27623000,0.0324,0.013523,0.002678,0.000431,0.027267
27624000,0.0324,0.013523,0.002678,0.000431,0.004701
27625000,0.0324,0.013523,0.002678,0.000431,0.127753
27626000,0.0324,0.013523,0.002678,0.000431,0.076746
27627000,0.0324,0.013523,0.002678,0.000431,0.012223
27628000,0.0324,0.013523,0.002678,0.000431,0.004701
27629000,0.0324,0.013523,0.002678,0.000431,0.049832
27630000,0.0324,0.013523,0.002678,0.000431,0.004701
27631000,0.0324,0.013523,0.002678,0.000431,0.004701
27632000,0.0324,0.013523,0.002678,0.000431,0.004701
27633000,0.0324,0.013523,0.002678,0.000431,0.027267
27634000,0.0324,0.013523,0.002678,0.000431,0.013986
27635000,0.0324,0.013523,0.002678,0.000431,0.048069
27636000,0.0324,0.013523,0.002678,0.000431,0.012223
27637000,0.0324,0.013523,0.002678,0.000431,0.030322
27638000,0.0324,0.013523,0.002678,0.000431,0.009402
27639000,0.0324,0.013523,0.002678,0.000431,0.004701
27640000,0.0324,0.013523,0.002678,0.000431,0.004701
27641000,0.0324,0.013523,0.002678,0.000431,0.027502
27642000,0.0324,0.013523,0.002678,0.000431,0.004701
27643000,0.0324,0.013523,0.002678,0.000431,0.004701
27644000,0.0324,0.013523,0.002678,0.000431,0.004701
27645000,0.0324,0.013523,0.002678,0.000431,0.012223
27646000,0.0324,0.013523,0.002678,0.000431,0.004701
27647000,0.0324,0.013523,0.002678,0.000431,0.084738
27648000,0.0324,0.013523,0.002678,0.000431,0.050890
27649000,0.0324,0.013523,0.002678,0.000431,0.013633
27650000,0.0324,0.013523,0.002678,0.000431,0.061115
27651000,0.0324,0.013523,0.002678,0.000431,0.034201
27652000,0.0324,0.013523,0.002678,0.000431,0.016571
27653000,0.0324,0.013523,0.002678,0.000431,0.004701
27654000,0.0324,0.013523,0.002678,0.000431,0.027267
27655000,0.0324,0.013523,0.002678,0.000431,0.004701
27656000,0.0324,0.013523,0.002678,0.000431,0.004701
27657000,0.0324,0.013523,0.002678,0.000431,0.027267
27658000,0.0324,0.013523,0.002678,0.000431,0.019745
27659000,0.0324,0.013523,0.002678,0.000431,0.008227
27660000,0.0324,0.013523,0.002678,0.000431,0.008462
27661000,0.0324,0.013523,0.002678,0.000431,0.004701
27662000,0.0324,0.013523,0.002678,0.000431,0.004701
27663000,0.0324,0.013523,0.002678,0.000431,0.004584
27664000,0.0324,0.013523,0.002678,0.000431,0.012105
27665000,0.0324,0.013523,0.002678,0.000431,0.004701
27666000,0.0324,0.013523,0.002678,0.000431,0.012223
27667000,0.0324,0.013523,0.002678,0.000431,0.004701
27668000,0.0324,0.013523,0.002678,0.000431,0.035023
27669000,0.0324,0.013523,0.002678,0.000431,0.004701
27670000,0.0324,0.013523,0.002678,0.000431,0.015984
27671000,0.0324,0.013523,0.002678,0.000431,0.076393
27672000,0.0324,0.013523,0.002678,0.000431,0.016571
27673000,0.0324,0.013523,0.002678,0.000431,0.008109
27674000,0.0324,0.013523,0.002678,0.000431,0.034788
27675000,0.0324,0.013523,0.002678,0.000431,0.004701
27676000,0.0324,0.013523,0.002678,0.000431,0.004701
27677000,0.0324,0.013523,0.002678,0.000431,0.012223
27678000,0.0324,0.013523,0.002678,0.000431,0.042310
27679000,0.0324,0.013523,0.002678,0.000431,0.019627
27680000,0.0324,0.013523,0.002678,0.000431,0.008345
27681000,0.0324,0.013523,0.002678,0.000431,0.008462
27682000,0.0324,0.013523,0.002678,0.000431,0.004701
27683000,0.0324,0.013523,0.002678,0.000431,0.004701
27684000,0.0324,0.013523,0.002678,0.000431,0.023506
27685000,0.0324,0.013523,0.002678,0.000431,0.008462
27686000,0.0324,0.013523,0.002678,0.000431,0.004701
27687000,0.0324,0.013523,0.002678,0.000431,0.094963
27688000,0.0324,0.013523,0.002678,0.000431,0.004701
27689000,0.0324,0.013523,0.002678,0.000431,0.004701
27690000,0.0324,0.013523,0.002678,0.000431,0.027267
27691000,0.0324,0.013523,0.002678,0.000431,0.004466
27692000,0.0324,0.013523,0.002678,0.000431,0.057589
27693000,0.0324,0.013523,0.002678,0.000431,0.011635
27694000,0.0324,0.013523,0.002678,0.000431,0.005524
27695000,0.0324,0.013523,0.002678,0.000431,0.004701
27696000,0.0324,0.013523,0.002678,0.000431,0.004701
27697000,0.0324,0.013523,0.002678,0.000431,0.019980
27698000,0.0324,0.013523,0.002678,0.000431,0.004701
27699000,0.0324,0.013523,0.002678,0.000431,0.004466
27700000,0.0324,0.013523,0.002678,0.000431,0.034788
27701000,0.0324,0.013523,0.002678,0.000431,0.004701
27702000,0.0324,0.013523,0.002678,0.000431,0.005171
27703000,0.0324,0.013523,0.002678,0.000431,0.026679
27704000,0.0324,0.013523,0.002678,0.000431,0.008345
27705000,0.0324,0.013523,0.002678,0.000431,0.008462
27706000,0.0324,0.013523,0.002678,0.000431,0.004701
27707000,0.0324,0.013523,0.002678,0.000431,0.004701
27708000,0.0324,0.013523,0.002678,0.000431,0.004701
27709000,0.0324,0.013523,0.002678,0.000431,0.004701
27710000,0.0324,0.013523,0.002678,0.000431,0.004701
27711000,0.0324,0.013523,0.002678,0.000431,0.019745
27712000,0.0324,0.013523,0.002678,0.000431,0.004701
27713000,0.0324,0.013523,0.002678,0.000431,0.072632
27714000,0.0324,0.013523,0.002678,0.000431,0.004701
27715000,0.0324,0.013523,0.002678,0.000431,0.028324
27716000,0.0324,0.013523,0.002678,0.000431,0.116235
27717000,0.0324,0.013523,0.002678,0.000431,0.030205
27718000,0.0324,0.013523,0.002678,0.000431,0.069224
27719000,0.0324,0.013523,0.002678,0.000431,0.065111
27720000,0.0324,0.013523,0.002678,0.000431,0.004701
27721000,0.0324,0.013523,0.002678,0.000431,0.004701
27722000,0.0324,0.013523,0.002678,0.000431,0.004701
27723000,0.0324,0.013523,0.002678,0.000431,0.004701
27724000,0.0324,0.013523,0.002678,0.000431,0.004701
27725000,0.0324,0.013523,0.002678,0.000431,0.012223
27726000,0.0324,0.013523,0.002678,0.000431,0.012223
27727000,0.0324,0.013523,0.002678,0.000431,0.004701
27728000,0.0324,0.013523,0.002678,0.000431,0.031968
27729000,0.0324,0.013523,0.002678,0.000431,0.037609
27730000,0.0324,0.013523,0.002678,0.000431,0.004701
27731000,0.0324,0.013523,0.002678,0.000431,0.004701
27732000,0.0324,0.013523,0.002678,0.000431,0.042545
27733000,0.0324,0.013523,0.002678,0.000431,0.004701
27734000,0.0324,0.013523,0.002678,0.000431,0.004701
27735000,0.0324,0.013523,0.002678,0.000431,0.011988
27736000,0.0324,0.013523,0.002678,0.000431,0.004701
27737000,0.0324,0.013523,0.002678,0.000431,0.004701
27738000,0.0324,0.013523,0.002678,0.000431,0.016336
27739000,0.0324,0.013523,0.002678,0.000431,0.015396
27740000,0.0324,0.013523,0.002678,0.000431,0.004466
27741000,0.0324,0.013523,0.002678,0.000431,0.109654
27742000,0.0324,0.013523,0.002678,0.000431,0.076863
27743000,0.0324,0.013523,0.002678,0.000431,0.016101
27744000,0.0324,0.013523,0.002678,0.000431,0.004466
27745000,0.0324,0.013523,0.002678,0.000431,0.004701
27746000,0.0324,0.013523,0.002678,0.000431,0.004701
27747000,0.0324,0.013523,0.002678,0.000431,0.004701
27748000,0.0324,0.013523,0.002678,0.000431,0.065346
27749000,0.0324,0.013523,0.002678,0.000431,0.011988
27750000,0.0324,0.013523,0.002678,0.000431,0.004701
27751000,0.0324,0.013523,0.002678,0.000431,0.004936
27752000,0.0324,0.013523,0.002678,0.000431,0.004584
27753000,0.0324,0.013523,0.002678,0.000431,0.004584
27754000,0.0324,0.013523,0.002678,0.000431,0.042075
27755000,0.0324,0.013523,0.002678,0.000431,0.065463
27756000,0.0324,0.013523,0.002678,0.000431,0.064758
27757000,0.0324,0.013523,0.002678,0.000431,0.004701
27758000,0.0324,0.013523,0.002678,0.000431,0.004701
27759000,0.0324,0.013523,0.002678,0.000431,0.004701
27760000,0.0324,0.013523,0.002678,0.000431,0.004701
27761000,0.0324,0.013523,0.002678,0.000431,0.034788
27762000,0.0324,0.013523,0.002678,0.000431,0.012223
27763000,0.0324,0.013523,0.002678,0.000431,0.004701
27764000,0.0324,0.013523,0.002678,0.000431,0.011988
27765000,0.0324,0.013523,0.002678,0.000431,0.004701
27766000,0.0324,0.013523,0.002678,0.000431,0.004701
27767000,0.0324,0.013523,0.002678,0.000431,0.064876
27768000,0.0324,0.013523,0.002678,0.000431,0.004701
27769000,0.0324,0.013523,0.002678,0.000431,0.012223
27770000,0.0324,0.013523,0.002678,0.000431,0.009637
27771000,0.0324,0.013523,0.002678,0.000431,0.014809
27772000,0.0324,0.013523,0.002678,0.000431,0.004466
27773000,0.0324,0.013523,0.002678,0.000431,0.030792
27774000,0.0324,0.013523,0.002678,0.000431,0.099429
27775000,0.0324,0.013523,0.002678,0.000431,0.012223
27776000,0.0324,0.013523,0.002678,0.000431,0.004701
27777000,0.0324,0.013523,0.002678,0.000431,0.080154
27778000,0.0324,0.013523,0.002678,0.000431,0.004701
27779000,0.0324,0.013523,0.002678,0.000431,0.004701
27780000,0.0324,0.013523,0.002678,0.000431,0.035023
27781000,0.0324,0.013523,0.002678,0.000431,0.004466
27782000,0.0324,0.013523,0.002678,0.000431,0.004701
27783000,0.0324,0.013523,0.002678,0.000431,0.010107
27784000,0.0324,0.013523,0.002678,0.000431,0.029382
27785000,0.0324,0.013523,0.002678,0.000431,0.004701
27786000,0.0324,0.013523,0.002678,0.000431,0.042310
27787000,0.0324,0.013523,0.002678,0.000431,0.012458
27788000,0.0324,0.013523,0.002678,0.000431,0.019745
27789000,0.0324,0.013523,0.002678,0.000431,0.004701
27790000,0.0324,0.013523,0.002678,0.000431,0.004701
27791000,0.0324,0.013523,0.002678,0.000431,0.004701
27792000,0.0324,0.013523,0.002678,0.000431,0.004701
27793000,0.0324,0.013523,0.002678,0.000431,0.042193
27794000,0.0324,0.013523,0.002678,0.000431,0.012105
27795000,0.0324,0.013523,0.002678,0.000431,0.004701
27796000,0.0324,0.013523,0.002678,0.000431,0.008462
27797000,0.0324,0.013523,0.002678,0.000431,0.008462
27798000,0.0324,0.013523,0.002678,0.000431,0.004701
27799000,0.0324,0.013523,0.002678,0.000431,0.043720
27800000,0.0324,0.013523,0.002678,0.000431,0.010813
27801000,0.0324,0.013523,0.002678,0.000431,0.004701
27802000,0.0324,0.013523,0.002678,0.000431,0.004701
27803000,0.0324,0.013523,0.002678,0.000431,0.080154
27804000,0.0324,0.013523,0.002678,0.000431,0.004466
27805000,0.0324,0.013523,0.002678,0.000431,0.008227
27806000,0.0324,0.013523,0.002678,0.000431,0.151376
27807000,0.0324,0.013523,0.002678,0.000431,0.004466
27808000,0.0324,0.013523,0.002678,0.000431,0.004701
27809000,0.0324,0.013523,0.002678,0.000431,0.044778
27810000,0.0324,0.013523,0.002678,0.000431,0.024798
27811000,0.0324,0.013523,0.002678,0.000431,0.004701
27812000,0.0324,0.013523,0.002678,0.000431,0.014573
27813000,0.0324,0.013523,0.002678,0.000431,0.024916
27814000,0.0324,0.013523,0.002678,0.000431,0.004701
27815000,0.0324,0.013523,0.002678,0.000431,0.004701
27816000,0.0324,0.013523,0.002678,0.000431,0.049832
27817000,0.0324,0.013523,0.002678,0.000431,0.004701
27818000,0.0324,0.013523,0.002678,0.000431,0.005641
27819000,0.0324,0.013523,0.002678,0.000431,0.018805
27820000,0.0324,0.013523,0.002678,0.000431,0.004701
27821000,0.0324,0.013523,0.002678,0.000431,0.004466
27822000,0.0324,0.013523,0.002678,0.000431,0.004701
27823000,0.0324,0.013523,0.002678,0.000431,0.034788
27824000,0.0324,0.013523,0.002678,0.000431,0.004701
27825000,0.0324,0.013523,0.002678,0.000431,0.057354
27826000,0.0324,0.013523,0.002678,0.000431,0.036434
27827000,0.0324,0.013523,0.002678,0.000431,0.033143
27828000,0.0324,0.013523,0.002678,0.000431,0.004701
27829000,0.0324,0.013523,0.002678,0.000431,0.008462
27830000,0.0324,0.013523,0.002678,0.000431,0.008462
27831000,0.0324,0.013523,0.002678,0.000431,0.004701
27832000,0.0324,0.013523,0.002678,0.000431,0.004701
27833000,0.0324,0.013523,0.002678,0.000431,0.012105
27834000,0.0324,0.013523,0.002678,0.000431,0.004584
27835000,0.0324,0.013523,0.002678,0.000431,0.004701
27836000,0.0324,0.013523,0.002678,0.000431,0.042310
27837000,0.0324,0.013523,0.002678,0.000431,0.004701
27838000,0.0324,0.013523,0.002678,0.000431,0.057354
27839000,0.0324,0.013523,0.002678,0.000431,0.011048
27840000,0.0324,0.013523,0.002678,0.000431,0.005876
27841000,0.0324,0.013523,0.002678,0.000431,0.004701
27842000,0.0324,0.013523,0.002678,0.000431,0.019745
27843000,0.0324,0.013523,0.002678,0.000431,0.004701
27844000,0.0324,0.013523,0.002678,0.000431,0.034671
27845000,0.0324,0.013523,0.002678,0.000431,0.044308
27846000,0.0324,0.013523,0.002678,0.000431,0.025151
27847000,0.0324,0.013523,0.002678,0.000431,0.004466
27848000,0.0324,0.013523,0.002678,0.000431,0.004701
27849000,0.0324,0.013523,0.002678,0.000431,0.004701
27850000,0.0324,0.013523,0.002678,0.000431,0.004701
27851000,0.0324,0.013523,0.002678,0.000431,0.004701
27852000,0.0324,0.013523,0.002678,0.000431,0.192981
27853000,0.0324,0.013523,0.002678,0.000431,0.057119
27854000,0.0324,0.013523,0.002678,0.000431,0.004701
27855000,0.0324,0.013523,0.002678,0.000431,0.027031
27856000,0.0324,0.013523,0.002678,0.000431,0.004701
27857000,0.0324,0.013523,0.002678,0.000431,0.046071
27858000,0.0324,0.013523,0.002678,0.000431,0.022213
27859000,0.0324,0.013523,0.002678,0.000431,0.024798
27860000,0.0324,0.013523,0.002678,0.000431,0.015984
27861000,0.0324,0.013523,0.002678,0.000431,0.004701
27862000,0.0324,0.013523,0.002678,0.000431,0.004701
27863000,0.0324,0.013523,0.002678,0.000431,0.004701
27864000,0.0324,0.013523,0.002678,0.000431,0.004701
27865000,0.0324,0.013523,0.002678,0.000431,0.033260
27866000,0.0324,0.013523,0.002678,0.000431,0.103190
27867000,0.0324,0.013523,0.002678,0.000431,0.005289
27868000,0.0324,0.013523,0.002678,0.000431,0.012223
27869000,0.0324,0.013523,0.002678,0.000431,0.004701
27870000,0.0324,0.013523,0.002678,0.000431,0.004701
27871000,0.0324,0.013523,0.002678,0.000431,0.019745
27872000,0.0324,0.013523,0.002678,0.000431,0.012223
27873000,0.0324,0.013523,0.002678,0.000431,0.019745
27874000,0.0324,0.013523,0.002678,0.000431,0.011988
27875000,0.0324,0.013523,0.002678,0.000431,0.012223
27876000,0.0324,0.013523,0.002678,0.000431,0.004701
27877000,0.0324,0.013523,0.002678,0.000431,0.094610
27878000,0.0324,0.013523,0.002678,0.000431,0.102250
27879000,0.0324,0.013523,0.002678,0.000431,0.019627
27880000,0.0324,0.013523,0.002678,0.000431,0.004701
27881000,0.0324,0.013523,0.002678,0.000431,0.072632
27882000,0.0324,0.013523,0.002678,0.000431,0.004701
27883000,0.0324,0.013523,0.002678,0.000431,0.004701
27884000,0.0324,0.013523,0.002678,0.000431,0.049832
27885000,0.0324,0.013523,0.002678,0.000431,0.004701
27886000,0.0324,0.013523,0.002678,0.000431,0.004701
27887000,0.0324,0.013523,0.002678,0.000431,0.036551
27888000,0.0324,0.013523,0.002678,0.000431,0.048304
27889000,0.0324,0.013523,0.002678,0.000431,0.004701
27890000,0.0324,0.013523,0.002678,0.000431,0.004701
27891000,0.0324,0.013523,0.002678,0.000431,0.034788
27892000,0.0324,0.013523,0.002678,0.000431,0.034788
27893000,0.0324,0.013523,0.002678,0.000431,0.004701
27894000,0.0324,0.013523,0.002678,0.000431,0.079919
27895000,0.0324,0.013523,0.002678,0.000431,0.004466
27896000,0.0324,0.013523,0.002678,0.000431,0.004701
27897000,0.0324,0.013523,0.002678,0.000431,0.079919
27898000,0.0324,0.013523,0.002678,0.000431,0.031262
27899000,0.0324,0.013523,0.002678,0.000431,0.008227
27900000,0.0324,0.013523,0.002678,0.000431,0.012223
27901000,0.0324,0.013523,0.002678,0.000431,0.004701
27902000,0.0324,0.013523,0.002678,0.000431,0.004701
27903000,0.0324,0.013523,0.002678,0.000431,0.038549
27904000,0.0324,0.013523,0.002678,0.000431,0.008462
27905000,0.0324,0.013523,0.002678,0.000431,0.049832
27906000,0.0324,0.013523,0.002678,0.000431,0.004701
27907000,0.0324,0.013523,0.002678,0.000431,0.004701
27908000,0.0324,0.013523,0.002678,0.000431,0.004701
27909000,0.0324,0.013523,0.002678,0.000431,0.004701
27910000,0.0324,0.013523,0.002678,0.000431,0.057354
27911000,0.0324,0.013523,0.002678,0.000431,0.079684
27912000,0.0324,0.013523,0.002678,0.000431,0.004701
27913000,0.0324,0.013523,0.002678,0.000431,0.004701
27914000,0.0324,0.013523,0.002678,0.000431,0.004701
27915000,0.0324,0.013523,0.002678,0.000431,0.004701
27916000,0.0324,0.013523,0.002678,0.000431,0.004701
27917000,0.0324,0.013523,0.002678,0.000431,0.008462
27918000,0.0324,0.013523,0.002678,0.000431,0.008462
27919000,0.0324,0.013523,0.002678,0.000431,0.013516
27920000,0.0324,0.013523,0.002678,0.000431,0.025739
27921000,0.0324,0.013523,0.002678,0.000431,0.004701
27922000,0.0324,0.013523,0.002678,0.000431,0.008462
27923000,0.0324,0.013523,0.002678,0.000431,0.008227
27924000,0.0324,0.013523,0.002678,0.000431,0.034788
27925000,0.0324,0.013523,0.002678,0.000431,0.004701
27926000,0.0324,0.013523,0.002678,0.000431,0.042310
27927000,0.0324,0.013523,0.002678,0.000431,0.004701
27928000,0.0324,0.013523,0.002678,0.000431,0.004701
27929000,0.0324,0.013523,0.002678,0.000431,0.051360
27930000,0.0324,0.013523,0.002678,0.000431,0.049714
27931000,0.0324,0.013523,0.002678,0.000431,0.056178
27932000,0.0324,0.013523,0.002678,0.000431,0.010225
27933000,0.0324,0.013523,0.002678,0.000431,0.006699
27934000,0.0324,0.013523,0.002678,0.000431,0.004701
27935000,0.0324,0.013523,0.002678,0.000431,0.019627
27936000,0.0324,0.013523,0.002678,0.000431,0.004584
27937000,0.0324,0.013523,0.002678,0.000431,0.019980
27938000,0.0324,0.013523,0.002678,0.000431,0.004701
27939000,0.0324,0.013523,0.002678,0.000431,0.012223
27940000,0.0324,0.013523,0.002678,0.000431,0.004701
27941000,0.0324,0.013523,0.002678,0.000431,0.004701
27942000,0.0324,0.013523,0.002678,0.000431,0.027267
27943000,0.0324,0.013523,0.002678,0.000431,0.028677
27944000,0.0324,0.013523,0.002678,0.000431,0.010813
27945000,0.0324,0.013523,0.002678,0.000431,0.015984
27946000,0.0324,0.013523,0.002678,0.000431,0.008462
27947000,0.0324,0.013523,0.002678,0.000431,0.004701
27948000,0.0324,0.013523,0.002678,0.000431,0.004701
27949000,0.0324,0.013523,0.002678,0.000431,0.004701
27950000,0.0324,0.013523,0.002678,0.000431,0.019745
27951000,0.0324,0.013523,0.002678,0.000431,0.004584
27952000,0.0324,0.013523,0.002678,0.000431,0.004584
27953000,0.0324,0.013523,0.002678,0.000431,0.004701
27954000,0.0324,0.013523,0.002678,0.000431,0.004701
27955000,0.0324,0.013523,0.002678,0.000431,0.004701
27956000,0.0324,0.013523,0.002678,0.000431,0.042310
27957000,0.0324,0.013523,0.002678,0.000431,0.004701
27958000,0.0324,0.013523,0.002678,0.000431,0.004701
27959000,0.0324,0.013523,0.002678,0.000431,0.004466
27960000,0.0324,0.013523,0.002678,0.000431,0.004701
27961000,0.0324,0.013523,0.002678,0.000431,0.019745
27962000,0.0324,0.013523,0.002678,0.000431,0.024563
27963000,0.0324,0.013523,0.002678,0.000431,0.044778
27964000,0.0324,0.013523,0.002678,0.000431,0.008462
27965000,0.0324,0.013523,0.002678,0.000431,0.031027
27966000,0.0324,0.013523,0.002678,0.000431,0.004701
27967000,0.0324,0.013523,0.002678,0.000431,0.018687
27968000,0.0324,0.013523,0.002678,0.000431,0.028324
27969000,0.0324,0.013523,0.002678,0.000431,0.102250
27970000,0.0324,0.013523,0.002678,0.000431,0.004701
27971000,0.0324,0.013523,0.002678,0.000431,0.117176
27972000,0.0324,0.013523,0.002678,0.000431,0.020097
27973000,0.0324,0.013523,0.002678,0.000431,0.004701
27974000,0.0324,0.013523,0.002678,0.000431,0.057589
27975000,0.0324,0.013523,0.002678,0.000431,0.018099
27976000,0.0324,0.013523,0.002678,0.000431,0.066521
27977000,0.0324,0.013523,0.002678,0.000431,0.004701
27978000,0.0324,0.013523,0.002678,0.000431,0.049832
27979000,0.0324,0.013523,0.002678,0.000431,0.004701
27980000,0.0324,0.013523,0.002678,0.000431,0.014809
27981000,0.0324,0.013523,0.002678,0.000431,0.009402
27982000,0.0324,0.013523,0.002678,0.000431,0.064876
27983000,0.0324,0.013523,0.002678,0.000431,0.004701
27984000,0.0324,0.013523,0.002678,0.000431,0.004701
27985000,0.0324,0.013523,0.002678,0.000431,0.004466
27986000,0.0324,0.013523,0.002678,0.000431,0.004701
27987000,0.0324,0.013523,0.002678,0.000431,0.004701
27988000,0.0324,0.013523,0.002678,0.000431,0.004701
27989000,0.0324,0.013523,0.002678,0.000431,0.004701
27990000,0.0324,0.013523,0.002678,0.000431,0.004701
27991000,0.0324,0.013523,0.002678,0.000431,0.019627
27992000,0.0324,0.013523,0.002678,0.000431,0.004584
27993000,0.0324,0.013523,0.002678,0.000431,0.012223
27994000,0.0324,0.013523,0.002678,0.000431,0.004701
27995000,0.0324,0.013523,0.002678,0.000431,0.110006
27996000,0.0324,0.013523,0.002678,0.000431,0.004701
27997000,0.0324,0.013523,0.002678,0.000431,0.012223
27998000,0.0324,0.013523,0.002678,0.000431,0.004701
27999000,0.0324,0.013523,0.002678,0.000431,0.004466
