Cycle,Area(mm^2),PeakDynamic(W),SubthresholdLeakage(W),GateLeakage(W),RunTimeDynamic(W)
3000000,0.0324,0.013523,0.002678,0.000431,1.862117
3001000,0.0324,0.013523,0.002678,0.000431,2.011260
3002000,0.0324,0.013523,0.002678,0.000431,2.047223
3003000,0.0324,0.013523,0.002678,0.000431,2.070024
3004000,0.0324,0.013523,0.002678,0.000431,2.111041
3005000,0.0324,0.013523,0.002678,0.000431,2.156642
3006000,0.0324,0.013523,0.002678,0.000431,1.912771
3007000,0.0324,0.013523,0.002678,0.000431,1.774088
3008000,0.0324,0.013523,0.002678,0.000431,1.823215
3009000,0.0324,0.013523,0.002678,0.000431,1.838141
3010000,0.0324,0.013523,0.002678,0.000431,1.898785
3011000,0.0324,0.013523,0.002678,0.000431,1.983641
3012000,0.0324,0.013523,0.002678,0.000431,1.887620
3013000,0.0324,0.013523,0.002678,0.000431,1.960017
3014000,0.0324,0.013523,0.002678,0.000431,2.060857
3015000,0.0324,0.013523,0.002678,0.000431,2.083892
3016000,0.0324,0.013523,0.002678,0.000431,1.843312
3017000,0.0324,0.013523,0.002678,0.000431,1.837553
3018000,0.0324,0.013523,0.002678,0.000431,1.743413
3019000,0.0324,0.013523,0.002678,0.000431,2.018782
3020000,0.0324,0.013523,0.002678,0.000431,2.026774
3021000,0.0324,0.013523,0.002678,0.000431,1.708625
3022000,0.0324,0.013523,0.002678,0.000431,1.910773
3023000,0.0324,0.013523,0.002678,0.000431,2.149238
3024000,0.0324,0.013523,0.002678,0.000431,2.030652
3025000,0.0324,0.013523,0.002678,0.000431,1.944621
3026000,0.0324,0.013523,0.002678,0.000431,1.933809
3027000,0.0324,0.013523,0.002678,0.000431,2.120091
3028000,0.0324,0.013523,0.002678,0.000431,1.964719
3029000,0.0324,0.013523,0.002678,0.000431,1.956022
3030000,0.0324,0.013523,0.002678,0.000431,1.915709
3031000,0.0324,0.013523,0.002678,0.000431,2.000095
3032000,0.0324,0.013523,0.002678,0.000431,2.093647
3033000,0.0324,0.013523,0.002678,0.000431,2.146417
3034000,0.0324,0.013523,0.002678,0.000431,2.003268
3035000,0.0324,0.013523,0.002678,0.000431,2.201068
3036000,0.0324,0.013523,0.002678,0.000431,2.016431
3037000,0.0324,0.013523,0.002678,0.000431,2.112334
3038000,0.0324,0.013523,0.002678,0.000431,1.911478
3039000,0.0324,0.013523,0.002678,0.000431,1.888208
3040000,0.0324,0.013523,0.002678,0.000431,2.204711
3041000,0.0324,0.013523,0.002678,0.000431,1.979527
3042000,0.0324,0.013523,0.002678,0.000431,1.878806
3043000,0.0324,0.013523,0.002678,0.000431,1.883389
3044000,0.0324,0.013523,0.002678,0.000431,1.937100
3045000,0.0324,0.013523,0.002678,0.000431,1.957784
3046000,0.0324,0.013523,0.002678,0.000431,1.974121
3047000,0.0324,0.013523,0.002678,0.000431,1.892674
3048000,0.0324,0.013523,0.002678,0.000431,1.695579
3049000,0.0324,0.013523,0.002678,0.000431,1.651506
3050000,0.0324,0.013523,0.002678,0.000431,1.744941
3051000,0.0324,0.013523,0.002678,0.000431,1.408928
3052000,0.0324,0.013523,0.002678,0.000431,1.621066
3053000,0.0324,0.013523,0.002678,0.000431,1.357921
3054000,0.0324,0.013523,0.002678,0.000431,1.329244
3055000,0.0324,0.013523,0.002678,0.000431,1.483558
3056000,0.0324,0.013523,0.002678,0.000431,1.453706
3057000,0.0324,0.013523,0.002678,0.000431,1.512118
3058000,0.0324,0.013523,0.002678,0.000431,1.460758
3059000,0.0324,0.013523,0.002678,0.000431,1.472628
3060000,0.0324,0.013523,0.002678,0.000431,1.559717
3061000,0.0324,0.013523,0.002678,0.000431,1.693816
3062000,0.0324,0.013523,0.002678,0.000431,1.707684
3063000,0.0324,0.013523,0.002678,0.000431,1.631879
3064000,0.0324,0.013523,0.002678,0.000431,1.879863
3065000,0.0324,0.013523,0.002678,0.000431,1.768799
3066000,0.0324,0.013523,0.002678,0.000431,1.902546
3067000,0.0324,0.013523,0.002678,0.000431,1.746351
3068000,0.0324,0.013523,0.002678,0.000431,1.688998
3069000,0.0324,0.013523,0.002678,0.000431,1.567708
3070000,0.0324,0.013523,0.002678,0.000431,1.527161
3071000,0.0324,0.013523,0.002678,0.000431,1.621654
3072000,0.0324,0.013523,0.002678,0.000431,1.646922
3073000,0.0324,0.013523,0.002678,0.000431,1.755636
3074000,0.0324,0.013523,0.002678,0.000431,1.705687
3075000,0.0324,0.013523,0.002678,0.000431,1.566886
3076000,0.0324,0.013523,0.002678,0.000431,1.790894
3077000,0.0324,0.013523,0.002678,0.000431,1.590509
3078000,0.0324,0.013523,0.002678,0.000431,1.590274
3079000,0.0324,0.013523,0.002678,0.000431,1.721083
3080000,0.0324,0.013523,0.002678,0.000431,1.759514
3081000,0.0324,0.013523,0.002678,0.000431,1.824037
3082000,0.0324,0.013523,0.002678,0.000431,1.765743
3083000,0.0324,0.013523,0.002678,0.000431,1.765861
3084000,0.0324,0.013523,0.002678,0.000431,1.473686
3085000,0.0324,0.013523,0.002678,0.000431,1.472746
3086000,0.0324,0.013523,0.002678,0.000431,1.559011
3087000,0.0324,0.013523,0.002678,0.000431,1.919118
3088000,0.0324,0.013523,0.002678,0.000431,1.795948
3089000,0.0324,0.013523,0.002678,0.000431,1.837553
3090000,0.0324,0.013523,0.002678,0.000431,1.877630
3091000,0.0324,0.013523,0.002678,0.000431,1.758104
3092000,0.0324,0.013523,0.002678,0.000431,1.764803
3093000,0.0324,0.013523,0.002678,0.000431,1.749172
3094000,0.0324,0.013523,0.002678,0.000431,1.871166
3095000,0.0324,0.013523,0.002678,0.000431,1.867640
3096000,0.0324,0.013523,0.002678,0.000431,1.681593
3097000,0.0324,0.013523,0.002678,0.000431,1.840021
3098000,0.0324,0.013523,0.002678,0.000431,1.957197
3099000,0.0324,0.013523,0.002678,0.000431,2.233976
3100000,0.0324,0.013523,0.002678,0.000431,1.856240
3101000,0.0324,0.013523,0.002678,0.000431,1.786311
3102000,0.0324,0.013523,0.002678,0.000431,1.874927
3103000,0.0324,0.013523,0.002678,0.000431,1.835203
3104000,0.0324,0.013523,0.002678,0.000431,1.899726
3105000,0.0324,0.013523,0.002678,0.000431,1.986344
3106000,0.0324,0.013523,0.002678,0.000431,1.671016
3107000,0.0324,0.013523,0.002678,0.000431,1.861999
3108000,0.0324,0.013523,0.002678,0.000431,2.135017
3109000,0.0324,0.013523,0.002678,0.000431,2.178620
3110000,0.0324,0.013523,0.002678,0.000431,1.848248
3111000,0.0324,0.013523,0.002678,0.000431,1.904662
3112000,0.0324,0.013523,0.002678,0.000431,2.123617
3113000,0.0324,0.013523,0.002678,0.000431,2.160286
3114000,0.0324,0.013523,0.002678,0.000431,1.982348
3115000,0.0324,0.013523,0.002678,0.000431,1.993043
3116000,0.0324,0.013523,0.002678,0.000431,2.010320
3117000,0.0324,0.013523,0.002678,0.000431,1.973768
3118000,0.0324,0.013523,0.002678,0.000431,1.725196
3119000,0.0324,0.013523,0.002678,0.000431,2.007499
3120000,0.0324,0.013523,0.002678,0.000431,2.017841
3121000,0.0324,0.013523,0.002678,0.000431,1.731895
3122000,0.0324,0.013523,0.002678,0.000431,1.707097
3123000,0.0324,0.013523,0.002678,0.000431,1.885270
3124000,0.0324,0.013523,0.002678,0.000431,1.694991
3125000,0.0324,0.013523,0.002678,0.000431,1.684884
3126000,0.0324,0.013523,0.002678,0.000431,1.743648
3127000,0.0324,0.013523,0.002678,0.000431,1.961428
3128000,0.0324,0.013523,0.002678,0.000431,1.736244
3129000,0.0324,0.013523,0.002678,0.000431,1.863762
3130000,0.0324,0.013523,0.002678,0.000431,1.907835
3131000,0.0324,0.013523,0.002678,0.000431,1.640693
3132000,0.0324,0.013523,0.002678,0.000431,1.494841
3133000,0.0324,0.013523,0.002678,0.000431,1.904427
3134000,0.0324,0.013523,0.002678,0.000431,1.761983
3135000,0.0324,0.013523,0.002678,0.000431,1.711798
3136000,0.0324,0.013523,0.002678,0.000431,1.670428
3137000,0.0324,0.013523,0.002678,0.000431,1.522460
3138000,0.0324,0.013523,0.002678,0.000431,1.519169
3139000,0.0324,0.013523,0.002678,0.000431,1.518934
3140000,0.0324,0.013523,0.002678,0.000431,1.662201
3141000,0.0324,0.013523,0.002678,0.000431,1.585455
3142000,0.0324,0.013523,0.002678,0.000431,1.514468
3143000,0.0324,0.013523,0.002678,0.000431,1.473921
3144000,0.0324,0.013523,0.002678,0.000431,1.492373
3145000,0.0324,0.013523,0.002678,0.000431,1.518229
3146000,0.0324,0.013523,0.002678,0.000431,1.457937
3147000,0.0324,0.013523,0.002678,0.000431,1.619068
3148000,0.0324,0.013523,0.002678,0.000431,1.775263
3149000,0.0324,0.013523,0.002678,0.000431,1.449475
3150000,0.0324,0.013523,0.002678,0.000431,1.673719
3151000,0.0324,0.013523,0.002678,0.000431,1.537269
3152000,0.0324,0.013523,0.002678,0.000431,1.542205
3153000,0.0324,0.013523,0.002678,0.000431,1.567708
3154000,0.0324,0.013523,0.002678,0.000431,1.627413
3155000,0.0324,0.013523,0.002678,0.000431,1.821452
3156000,0.0324,0.013523,0.002678,0.000431,1.706862
3157000,0.0324,0.013523,0.002678,0.000431,1.591802
3158000,0.0324,0.013523,0.002678,0.000431,1.789014
3159000,0.0324,0.013523,0.002678,0.000431,1.625297
3160000,0.0324,0.013523,0.002678,0.000431,1.718967
3161000,0.0324,0.013523,0.002678,0.000431,1.530570
3162000,0.0324,0.013523,0.002678,0.000431,1.559481
3163000,0.0324,0.013523,0.002678,0.000431,1.683474
3164000,0.0324,0.013523,0.002678,0.000431,1.572762
3165000,0.0324,0.013523,0.002678,0.000431,1.687352
3166000,0.0324,0.013523,0.002678,0.000431,1.699458
3167000,0.0324,0.013523,0.002678,0.000431,1.598736
3168000,0.0324,0.013523,0.002678,0.000431,1.567591
3169000,0.0324,0.013523,0.002678,0.000431,1.669135
3170000,0.0324,0.013523,0.002678,0.000431,1.637520
3171000,0.0324,0.013523,0.002678,0.000431,1.637520
3172000,0.0324,0.013523,0.002678,0.000431,1.707684
3173000,0.0324,0.013523,0.002678,0.000431,1.633407
3174000,0.0324,0.013523,0.002678,0.000431,1.806291
3175000,0.0324,0.013523,0.002678,0.000431,1.686294
3176000,0.0324,0.013523,0.002678,0.000431,1.883272
3177000,0.0324,0.013523,0.002678,0.000431,1.930048
3178000,0.0324,0.013523,0.002678,0.000431,1.917825
3179000,0.0324,0.013523,0.002678,0.000431,2.046166
3180000,0.0324,0.013523,0.002678,0.000431,1.966364
3181000,0.0324,0.013523,0.002678,0.000431,1.905484
3182000,0.0324,0.013523,0.002678,0.000431,2.010202
3183000,0.0324,0.013523,0.002678,0.000431,2.159110
3184000,0.0324,0.013523,0.002678,0.000431,1.789837
3185000,0.0324,0.013523,0.002678,0.000431,1.892439
3186000,0.0324,0.013523,0.002678,0.000431,1.974238
3187000,0.0324,0.013523,0.002678,0.000431,1.808994
3188000,0.0324,0.013523,0.002678,0.000431,1.772207
3189000,0.0324,0.013523,0.002678,0.000431,1.831324
3190000,0.0324,0.013523,0.002678,0.000431,1.918530
3191000,0.0324,0.013523,0.002678,0.000431,2.006089
3192000,0.0324,0.013523,0.002678,0.000431,1.764216
3193000,0.0324,0.013523,0.002678,0.000431,1.908305
3194000,0.0324,0.013523,0.002678,0.000431,1.965659
3195000,0.0324,0.013523,0.002678,0.000431,2.063560
3196000,0.0324,0.013523,0.002678,0.000431,1.886092
3197000,0.0324,0.013523,0.002678,0.000431,1.886915
3198000,0.0324,0.013523,0.002678,0.000431,1.897610
3199000,0.0324,0.013523,0.002678,0.000431,1.789602
3200000,0.0324,0.013523,0.002678,0.000431,1.753638
3201000,0.0324,0.013523,0.002678,0.000431,1.842959
3202000,0.0324,0.013523,0.002678,0.000431,1.762570
3203000,0.0324,0.013523,0.002678,0.000431,1.652916
3204000,0.0324,0.013523,0.002678,0.000431,1.689820
3205000,0.0324,0.013523,0.002678,0.000431,1.940860
3206000,0.0324,0.013523,0.002678,0.000431,2.090826
3207000,0.0324,0.013523,0.002678,0.000431,1.870461
3208000,0.0324,0.013523,0.002678,0.000431,1.858003
3209000,0.0324,0.013523,0.002678,0.000431,1.791952
3210000,0.0324,0.013523,0.002678,0.000431,1.815575
3211000,0.0324,0.013523,0.002678,0.000431,1.688880
3212000,0.0324,0.013523,0.002678,0.000431,1.602849
3213000,0.0324,0.013523,0.002678,0.000431,1.669488
3214000,0.0324,0.013523,0.002678,0.000431,1.686059
3215000,0.0324,0.013523,0.002678,0.000431,1.642339
3216000,0.0324,0.013523,0.002678,0.000431,1.509179
3217000,0.0324,0.013523,0.002678,0.000431,1.752698
3218000,0.0324,0.013523,0.002678,0.000431,1.696402
3219000,0.0324,0.013523,0.002678,0.000431,1.589569
3220000,0.0324,0.013523,0.002678,0.000431,1.650096
3221000,0.0324,0.013523,0.002678,0.000431,1.687822
3222000,0.0324,0.013523,0.002678,0.000431,1.779259
3223000,0.0324,0.013523,0.002678,0.000431,1.745999
3224000,0.0324,0.013523,0.002678,0.000431,1.696989
3225000,0.0324,0.013523,0.002678,0.000431,1.919118
3226000,0.0324,0.013523,0.002678,0.000431,1.930048
3227000,0.0324,0.013523,0.002678,0.000431,1.751640
3228000,0.0324,0.013523,0.002678,0.000431,1.591449
3229000,0.0324,0.013523,0.002678,0.000431,1.660908
3230000,0.0324,0.013523,0.002678,0.000431,1.715559
3231000,0.0324,0.013523,0.002678,0.000431,1.632114
3232000,0.0324,0.013523,0.002678,0.000431,1.675129
3233000,0.0324,0.013523,0.002678,0.000431,1.789249
3234000,0.0324,0.013523,0.002678,0.000431,1.605317
3235000,0.0324,0.013523,0.002678,0.000431,1.549962
3236000,0.0324,0.013523,0.002678,0.000431,1.656912
3237000,0.0324,0.013523,0.002678,0.000431,1.746821
3238000,0.0324,0.013523,0.002678,0.000431,1.660673
3239000,0.0324,0.013523,0.002678,0.000431,1.658088
3240000,0.0324,0.013523,0.002678,0.000431,1.589686
3241000,0.0324,0.013523,0.002678,0.000431,1.593800
3242000,0.0324,0.013523,0.002678,0.000431,1.744588
3243000,0.0324,0.013523,0.002678,0.000431,1.569119
3244000,0.0324,0.013523,0.002678,0.000431,1.733306
3245000,0.0324,0.013523,0.002678,0.000431,1.633642
3246000,0.0324,0.013523,0.002678,0.000431,1.742708
3247000,0.0324,0.013523,0.002678,0.000431,1.783373
3248000,0.0324,0.013523,0.002678,0.000431,1.727194
3249000,0.0324,0.013523,0.002678,0.000431,1.869991
3250000,0.0324,0.013523,0.002678,0.000431,1.735304
3251000,0.0324,0.013523,0.002678,0.000431,1.671956
3252000,0.0324,0.013523,0.002678,0.000431,1.508239
3253000,0.0324,0.013523,0.002678,0.000431,1.618128
3254000,0.0324,0.013523,0.002678,0.000431,1.822157
3255000,0.0324,0.013523,0.002678,0.000431,1.530099
3256000,0.0324,0.013523,0.002678,0.000431,1.571117
3257000,0.0324,0.013523,0.002678,0.000431,1.565123
3258000,0.0324,0.013523,0.002678,0.000431,1.526926
3259000,0.0324,0.013523,0.002678,0.000431,1.689115
3260000,0.0324,0.013523,0.002678,0.000431,1.650448
3261000,0.0324,0.013523,0.002678,0.000431,1.496369
3262000,0.0324,0.013523,0.002678,0.000431,1.558189
3263000,0.0324,0.013523,0.002678,0.000431,1.677245
3264000,0.0324,0.013523,0.002678,0.000431,1.570059
3265000,0.0324,0.013523,0.002678,0.000431,1.724256
3266000,0.0324,0.013523,0.002678,0.000431,1.523165
3267000,0.0324,0.013523,0.002678,0.000431,1.431493
3268000,0.0324,0.013523,0.002678,0.000431,1.384129
3269000,0.0324,0.013523,0.002678,0.000431,1.481325
3270000,0.0324,0.013523,0.002678,0.000431,1.408340
3271000,0.0324,0.013523,0.002678,0.000431,1.513528
3272000,0.0324,0.013523,0.002678,0.000431,1.591214
3273000,0.0324,0.013523,0.002678,0.000431,1.440896
3274000,0.0324,0.013523,0.002678,0.000431,1.447477
3275000,0.0324,0.013523,0.002678,0.000431,1.409751
3276000,0.0324,0.013523,0.002678,0.000431,1.354865
3277000,0.0324,0.013523,0.002678,0.000431,1.500717
3278000,0.0324,0.013523,0.002678,0.000431,1.508827
3279000,0.0324,0.013523,0.002678,0.000431,1.495429
3280000,0.0324,0.013523,0.002678,0.000431,1.569824
3281000,0.0324,0.013523,0.002678,0.000431,1.363562
3282000,0.0324,0.013523,0.002678,0.000431,1.490492
3283000,0.0324,0.013523,0.002678,0.000431,1.437252
3284000,0.0324,0.013523,0.002678,0.000431,1.569824
3285000,0.0324,0.013523,0.002678,0.000431,1.642691
3286000,0.0324,0.013523,0.002678,0.000431,1.628000
3287000,0.0324,0.013523,0.002678,0.000431,1.475684
3288000,0.0324,0.013523,0.002678,0.000431,1.647980
3289000,0.0324,0.013523,0.002678,0.000431,1.470748
3290000,0.0324,0.013523,0.002678,0.000431,1.406930
3291000,0.0324,0.013523,0.002678,0.000431,1.544673
3292000,0.0324,0.013523,0.002678,0.000431,1.672426
3293000,0.0324,0.013523,0.002678,0.000431,1.521637
3294000,0.0324,0.013523,0.002678,0.000431,1.437135
3295000,0.0324,0.013523,0.002678,0.000431,1.529277
3296000,0.0324,0.013523,0.002678,0.000431,1.512470
3297000,0.0324,0.013523,0.002678,0.000431,1.557601
3298000,0.0324,0.013523,0.002678,0.000431,1.471688
3299000,0.0324,0.013523,0.002678,0.000431,1.655267
3300000,0.0324,0.013523,0.002678,0.000431,1.565828
3301000,0.0324,0.013523,0.002678,0.000431,1.548904
3302000,0.0324,0.013523,0.002678,0.000431,1.701338
3303000,0.0324,0.013523,0.002678,0.000431,1.751405
3304000,0.0324,0.013523,0.002678,0.000431,1.704159
3305000,0.0324,0.013523,0.002678,0.000431,1.650683
3306000,0.0324,0.013523,0.002678,0.000431,1.658558
3307000,0.0324,0.013523,0.002678,0.000431,1.548316
3308000,0.0324,0.013523,0.002678,0.000431,1.815340
3309000,0.0324,0.013523,0.002678,0.000431,1.770680
3310000,0.0324,0.013523,0.002678,0.000431,1.587336
3311000,0.0324,0.013523,0.002678,0.000431,1.687705
3312000,0.0324,0.013523,0.002678,0.000431,1.543028
3313000,0.0324,0.013523,0.002678,0.000431,1.616835
3314000,0.0324,0.013523,0.002678,0.000431,1.639518
3315000,0.0324,0.013523,0.002678,0.000431,1.618598
3316000,0.0324,0.013523,0.002678,0.000431,1.573585
3317000,0.0324,0.013523,0.002678,0.000431,1.574172
3318000,0.0324,0.013523,0.002678,0.000431,1.425147
3319000,0.0324,0.013523,0.002678,0.000431,1.544438
3320000,0.0324,0.013523,0.002678,0.000431,1.604377
3321000,0.0324,0.013523,0.002678,0.000431,1.721083
3322000,0.0324,0.013523,0.002678,0.000431,1.582517
3323000,0.0324,0.013523,0.002678,0.000431,1.728722
3324000,0.0324,0.013523,0.002678,0.000431,1.681711
3325000,0.0324,0.013523,0.002678,0.000431,1.608491
3326000,0.0324,0.013523,0.002678,0.000431,1.447947
3327000,0.0324,0.013523,0.002678,0.000431,1.456057
3328000,0.0324,0.013523,0.002678,0.000431,1.526691
3329000,0.0324,0.013523,0.002678,0.000431,1.560892
3330000,0.0324,0.013523,0.002678,0.000431,1.646100
3331000,0.0324,0.013523,0.002678,0.000431,1.684649
3332000,0.0324,0.013523,0.002678,0.000431,1.684061
3333000,0.0324,0.013523,0.002678,0.000431,1.750465
3334000,0.0324,0.013523,0.002678,0.000431,1.771150
3335000,0.0324,0.013523,0.002678,0.000431,1.687822
3336000,0.0324,0.013523,0.002678,0.000431,1.743648
3337000,0.0324,0.013523,0.002678,0.000431,1.644102
3338000,0.0324,0.013523,0.002678,0.000431,1.485556
3339000,0.0324,0.013523,0.002678,0.000431,1.782080
3340000,0.0324,0.013523,0.002678,0.000431,1.657265
3341000,0.0324,0.013523,0.002678,0.000431,1.661026
3342000,0.0324,0.013523,0.002678,0.000431,1.486967
3343000,0.0324,0.013523,0.002678,0.000431,1.562185
3344000,0.0324,0.013523,0.002678,0.000431,1.633289
3345000,0.0324,0.013523,0.002678,0.000431,1.617658
3346000,0.0324,0.013523,0.002678,0.000431,1.731895
3347000,0.0324,0.013523,0.002678,0.000431,1.557248
3348000,0.0324,0.013523,0.002678,0.000431,1.553252
3349000,0.0324,0.013523,0.002678,0.000431,1.586983
3350000,0.0324,0.013523,0.002678,0.000431,1.463108
3351000,0.0324,0.013523,0.002678,0.000431,1.405755
3352000,0.0324,0.013523,0.002678,0.000431,1.673249
3353000,0.0324,0.013523,0.002678,0.000431,1.663024
3354000,0.0324,0.013523,0.002678,0.000431,1.518112
3355000,0.0324,0.013523,0.002678,0.000431,1.824390
3356000,0.0324,0.013523,0.002678,0.000431,1.580284
3357000,0.0324,0.013523,0.002678,0.000431,1.705687
3358000,0.0324,0.013523,0.002678,0.000431,1.657265
3359000,0.0324,0.013523,0.002678,0.000431,1.659733
3360000,0.0324,0.013523,0.002678,0.000431,1.734951
3361000,0.0324,0.013523,0.002678,0.000431,1.796418
3362000,0.0324,0.013523,0.002678,0.000431,1.712503
3363000,0.0324,0.013523,0.002678,0.000431,1.733893
3364000,0.0324,0.013523,0.002678,0.000431,1.743883
3365000,0.0324,0.013523,0.002678,0.000431,1.858356
3366000,0.0324,0.013523,0.002678,0.000431,1.825095
3367000,0.0324,0.013523,0.002678,0.000431,1.677715
3368000,0.0324,0.013523,0.002678,0.000431,1.683239
3369000,0.0324,0.013523,0.002678,0.000431,1.707332
3370000,0.0324,0.013523,0.002678,0.000431,1.750230
3371000,0.0324,0.013523,0.002678,0.000431,1.880804
3372000,0.0324,0.013523,0.002678,0.000431,1.798769
3373000,0.0324,0.013523,0.002678,0.000431,1.709800
3374000,0.0324,0.013523,0.002678,0.000431,1.792657
3375000,0.0324,0.013523,0.002678,0.000431,1.740122
3376000,0.0324,0.013523,0.002678,0.000431,1.636580
3377000,0.0324,0.013523,0.002678,0.000431,1.718850
3378000,0.0324,0.013523,0.002678,0.000431,1.781492
3379000,0.0324,0.013523,0.002678,0.000431,1.629293
3380000,0.0324,0.013523,0.002678,0.000431,1.627883
3381000,0.0324,0.013523,0.002678,0.000431,1.654209
3382000,0.0324,0.013523,0.002678,0.000431,1.694169
3383000,0.0324,0.013523,0.002678,0.000431,1.825330
3384000,0.0324,0.013523,0.002678,0.000431,1.716264
3385000,0.0324,0.013523,0.002678,0.000431,2.028301
3386000,0.0324,0.013523,0.002678,0.000431,1.581929
3387000,0.0324,0.013523,0.002678,0.000431,1.747644
3388000,0.0324,0.013523,0.002678,0.000431,1.854477
3389000,0.0324,0.013523,0.002678,0.000431,1.753050
3390000,0.0324,0.013523,0.002678,0.000431,1.662671
3391000,0.0324,0.013523,0.002678,0.000431,1.849894
3392000,0.0324,0.013523,0.002678,0.000431,1.749642
3393000,0.0324,0.013523,0.002678,0.000431,1.741298
3394000,0.0324,0.013523,0.002678,0.000431,1.804645
3395000,0.0324,0.013523,0.002678,0.000431,1.598971
3396000,0.0324,0.013523,0.002678,0.000431,1.811814
3397000,0.0324,0.013523,0.002678,0.000431,1.743883
3398000,0.0324,0.013523,0.002678,0.000431,1.880216
3399000,0.0324,0.013523,0.002678,0.000431,1.924759
3400000,0.0324,0.013523,0.002678,0.000431,1.940860
3401000,0.0324,0.013523,0.002678,0.000431,1.848483
3402000,0.0324,0.013523,0.002678,0.000431,1.937335
3403000,0.0324,0.013523,0.002678,0.000431,1.913241
3404000,0.0324,0.013523,0.002678,0.000431,1.812990
3405000,0.0324,0.013523,0.002678,0.000431,1.907247
3406000,0.0324,0.013523,0.002678,0.000431,1.963543
3407000,0.0324,0.013523,0.002678,0.000431,1.863997
3408000,0.0324,0.013523,0.002678,0.000431,2.055803
3409000,0.0324,0.013523,0.002678,0.000431,1.897493
3410000,0.0324,0.013523,0.002678,0.000431,1.820747
3411000,0.0324,0.013523,0.002678,0.000431,2.030417
3412000,0.0324,0.013523,0.002678,0.000431,2.218344
3413000,0.0324,0.013523,0.002678,0.000431,2.276051
3414000,0.0324,0.013523,0.002678,0.000431,2.223751
3415000,0.0324,0.013523,0.002678,0.000431,2.121149
3416000,0.0324,0.013523,0.002678,0.000431,1.947912
3417000,0.0324,0.013523,0.002678,0.000431,1.921233
3418000,0.0324,0.013523,0.002678,0.000431,2.163459
3419000,0.0324,0.013523,0.002678,0.000431,2.204359
3420000,0.0324,0.013523,0.002678,0.000431,2.363257
3421000,0.0324,0.013523,0.002678,0.000431,2.380886
3422000,0.0324,0.013523,0.002678,0.000431,2.665304
3423000,0.0324,0.013523,0.002678,0.000431,2.646382
3424000,0.0324,0.013523,0.002678,0.000431,2.459630
3425000,0.0324,0.013523,0.002678,0.000431,2.340339
3426000,0.0324,0.013523,0.002678,0.000431,2.532027
3427000,0.0324,0.013523,0.002678,0.000431,2.467739
3428000,0.0324,0.013523,0.002678,0.000431,2.457162
3429000,0.0324,0.013523,0.002678,0.000431,2.575042
3430000,0.0324,0.013523,0.002678,0.000431,2.506406
3431000,0.0324,0.013523,0.002678,0.000431,2.628988
3432000,0.0324,0.013523,0.002678,0.000431,2.766966
3433000,0.0324,0.013523,0.002678,0.000431,2.791412
3434000,0.0324,0.013523,0.002678,0.000431,2.958067
3435000,0.0324,0.013523,0.002678,0.000431,2.916579
3436000,0.0324,0.013523,0.002678,0.000431,3.142351
3437000,0.0324,0.013523,0.002678,0.000431,3.108150
3438000,0.0324,0.013523,0.002678,0.000431,3.082294
3439000,0.0324,0.013523,0.002678,0.000431,3.141998
3440000,0.0324,0.013523,0.002678,0.000431,2.960535
3441000,0.0324,0.013523,0.002678,0.000431,3.102156
3442000,0.0324,0.013523,0.002678,0.000431,3.249067
3443000,0.0324,0.013523,0.002678,0.000431,3.201820
3444000,0.0324,0.013523,0.002678,0.000431,3.447102
3445000,0.0324,0.013523,0.002678,0.000431,3.328516
3446000,0.0324,0.013523,0.002678,0.000431,3.488472
3447000,0.0324,0.013523,0.002678,0.000431,3.547823
3448000,0.0324,0.013523,0.002678,0.000431,3.666644
3449000,0.0324,0.013523,0.002678,0.000431,3.507158
3450000,0.0324,0.013523,0.002678,0.000431,3.695909
3451000,0.0324,0.013523,0.002678,0.000431,3.662648
3452000,0.0324,0.013523,0.002678,0.000431,3.439227
3453000,0.0324,0.013523,0.002678,0.000431,3.405027
3454000,0.0324,0.013523,0.002678,0.000431,3.370356
3455000,0.0324,0.013523,0.002678,0.000431,3.586372
3456000,0.0324,0.013523,0.002678,0.000431,3.629388
3457000,0.0324,0.013523,0.002678,0.000431,3.594364
3458000,0.0324,0.013523,0.002678,0.000431,3.615402
3459000,0.0324,0.013523,0.002678,0.000431,3.545590
3460000,0.0324,0.013523,0.002678,0.000431,3.538891
3461000,0.0324,0.013523,0.002678,0.000431,3.562632
3462000,0.0324,0.013523,0.002678,0.000431,3.530312
3463000,0.0324,0.013523,0.002678,0.000431,3.481302
3464000,0.0324,0.013523,0.002678,0.000431,3.487296
3465000,0.0324,0.013523,0.002678,0.000431,3.461323
3466000,0.0324,0.013523,0.002678,0.000431,3.416662
3467000,0.0324,0.013523,0.002678,0.000431,3.309006
3468000,0.0324,0.013523,0.002678,0.000431,3.337918
3469000,0.0324,0.013523,0.002678,0.000431,3.331454
3470000,0.0324,0.013523,0.002678,0.000431,3.284795
3471000,0.0324,0.013523,0.002678,0.000431,3.233788
3472000,0.0324,0.013523,0.002678,0.000431,3.493055
3473000,0.0324,0.013523,0.002678,0.000431,3.184074
3474000,0.0324,0.013523,0.002678,0.000431,3.363892
3475000,0.0324,0.013523,0.002678,0.000431,3.362481
3476000,0.0324,0.013523,0.002678,0.000431,3.315000
3477000,0.0324,0.013523,0.002678,0.000431,3.218744
3478000,0.0324,0.013523,0.002678,0.000431,3.247891
3479000,0.0324,0.013523,0.002678,0.000431,3.168677
3480000,0.0324,0.013523,0.002678,0.000431,3.213103
3481000,0.0324,0.013523,0.002678,0.000431,3.117788
3482000,0.0324,0.013523,0.002678,0.000431,3.128483
3483000,0.0324,0.013523,0.002678,0.000431,3.078416
3484000,0.0324,0.013523,0.002678,0.000431,3.217099
3485000,0.0324,0.013523,0.002678,0.000431,3.252357
3486000,0.0324,0.013523,0.002678,0.000431,3.110383
3487000,0.0324,0.013523,0.002678,0.000431,3.252710
3488000,0.0324,0.013523,0.002678,0.000431,3.178550
3489000,0.0324,0.013523,0.002678,0.000431,3.145994
3490000,0.0324,0.013523,0.002678,0.000431,3.110383
3491000,0.0324,0.013523,0.002678,0.000431,2.987919
3492000,0.0324,0.013523,0.002678,0.000431,3.042922
3493000,0.0324,0.013523,0.002678,0.000431,2.824320
3494000,0.0324,0.013523,0.002678,0.000431,2.887550
3495000,0.0324,0.013523,0.002678,0.000431,2.813977
3496000,0.0324,0.013523,0.002678,0.000431,2.782597
3497000,0.0324,0.013523,0.002678,0.000431,2.740992
3498000,0.0324,0.013523,0.002678,0.000431,2.685754
3499000,0.0324,0.013523,0.002678,0.000431,2.701620
3500000,0.0324,0.013523,0.002678,0.000431,2.654492
3501000,0.0324,0.013523,0.002678,0.000431,2.567286
3502000,0.0324,0.013523,0.002678,0.000431,2.596315
3503000,0.0324,0.013523,0.002678,0.000431,2.531557
3504000,0.0324,0.013523,0.002678,0.000431,2.580801
3505000,0.0324,0.013523,0.002678,0.000431,2.568226
3506000,0.0324,0.013523,0.002678,0.000431,2.534025
3507000,0.0324,0.013523,0.002678,0.000431,2.608068
3508000,0.0324,0.013523,0.002678,0.000431,2.459395
3509000,0.0324,0.013523,0.002678,0.000431,2.481960
3510000,0.0324,0.013523,0.002678,0.000431,2.514515
3511000,0.0324,0.013523,0.002678,0.000431,2.490422
3512000,0.0324,0.013523,0.002678,0.000431,2.400278
3513000,0.0324,0.013523,0.002678,0.000431,2.488072
3514000,0.0324,0.013523,0.002678,0.000431,2.413676
3515000,0.0324,0.013523,0.002678,0.000431,2.537786
3516000,0.0324,0.013523,0.002678,0.000431,2.476554
3517000,0.0324,0.013523,0.002678,0.000431,2.455516
3518000,0.0324,0.013523,0.002678,0.000431,2.515691
3519000,0.0324,0.013523,0.002678,0.000431,2.566698
3520000,0.0324,0.013523,0.002678,0.000431,2.451990
3521000,0.0324,0.013523,0.002678,0.000431,2.404979
3522000,0.0324,0.013523,0.002678,0.000431,2.514751
3523000,0.0324,0.013523,0.002678,0.000431,2.448935
3524000,0.0324,0.013523,0.002678,0.000431,2.442588
3525000,0.0324,0.013523,0.002678,0.000431,2.500530
3526000,0.0324,0.013523,0.002678,0.000431,2.456692
3527000,0.0324,0.013523,0.002678,0.000431,2.405567
3528000,0.0324,0.013523,0.002678,0.000431,2.435772
3529000,0.0324,0.013523,0.002678,0.000431,2.536493
3530000,0.0324,0.013523,0.002678,0.000431,2.525916
3531000,0.0324,0.013523,0.002678,0.000431,2.415792
3532000,0.0324,0.013523,0.002678,0.000431,2.442588
3533000,0.0324,0.013523,0.002678,0.000431,2.413324
3534000,0.0324,0.013523,0.002678,0.000431,2.476084
3535000,0.0324,0.013523,0.002678,0.000431,2.500295
3536000,0.0324,0.013523,0.002678,0.000431,2.398280
3537000,0.0324,0.013523,0.002678,0.000431,2.450933
3538000,0.0324,0.013523,0.002678,0.000431,2.520862
3539000,0.0324,0.013523,0.002678,0.000431,2.425664
3540000,0.0324,0.013523,0.002678,0.000431,2.499237
3541000,0.0324,0.013523,0.002678,0.000431,2.444704
3542000,0.0324,0.013523,0.002678,0.000431,2.483841
3543000,0.0324,0.013523,0.002678,0.000431,2.485251
3544000,0.0324,0.013523,0.002678,0.000431,2.510990
3545000,0.0324,0.013523,0.002678,0.000431,2.533085
3546000,0.0324,0.013523,0.002678,0.000431,2.508757
3547000,0.0324,0.013523,0.002678,0.000431,2.610536
3548000,0.0324,0.013523,0.002678,0.000431,2.512517
3549000,0.0324,0.013523,0.002678,0.000431,2.466917
3550000,0.0324,0.013523,0.002678,0.000431,2.373482
3551000,0.0324,0.013523,0.002678,0.000431,2.510520
3552000,0.0324,0.013523,0.002678,0.000431,2.609596
3553000,0.0324,0.013523,0.002678,0.000431,2.604072
3554000,0.0324,0.013523,0.002678,0.000431,2.518511
3555000,0.0324,0.013523,0.002678,0.000431,2.633336
3556000,0.0324,0.013523,0.002678,0.000431,2.539079
3557000,0.0324,0.013523,0.002678,0.000431,2.613709
3558000,0.0324,0.013523,0.002678,0.000431,2.671063
3559000,0.0324,0.013523,0.002678,0.000431,2.676822
3560000,0.0324,0.013523,0.002678,0.000431,2.719602
3561000,0.0324,0.013523,0.002678,0.000431,2.640506
3562000,0.0324,0.013523,0.002678,0.000431,2.623582
3563000,0.0324,0.013523,0.002678,0.000431,2.618645
3564000,0.0324,0.013523,0.002678,0.000431,2.681993
3565000,0.0324,0.013523,0.002678,0.000431,2.579979
3566000,0.0324,0.013523,0.002678,0.000431,2.818913
3567000,0.0324,0.013523,0.002678,0.000431,2.696449
3568000,0.0324,0.013523,0.002678,0.000431,2.669888
3569000,0.0324,0.013523,0.002678,0.000431,2.719250
3570000,0.0324,0.013523,0.002678,0.000431,2.760972
3571000,0.0324,0.013523,0.002678,0.000431,2.697389
3572000,0.0324,0.013523,0.002678,0.000431,2.780717
3573000,0.0324,0.013523,0.002678,0.000431,2.613122
3574000,0.0324,0.013523,0.002678,0.000431,2.805750
3575000,0.0324,0.013523,0.002678,0.000431,2.650966
3576000,0.0324,0.013523,0.002678,0.000431,2.787063
3577000,0.0324,0.013523,0.002678,0.000431,2.651671
3578000,0.0324,0.013523,0.002678,0.000431,2.749219
3579000,0.0324,0.013523,0.002678,0.000431,2.732883
3580000,0.0324,0.013523,0.002678,0.000431,2.650613
3581000,0.0324,0.013523,0.002678,0.000431,2.635805
3582000,0.0324,0.013523,0.002678,0.000431,2.708319
3583000,0.0324,0.013523,0.002678,0.000431,2.662013
3584000,0.0324,0.013523,0.002678,0.000431,2.687399
3585000,0.0324,0.013523,0.002678,0.000431,2.710200
3586000,0.0324,0.013523,0.002678,0.000431,2.635805
3587000,0.0324,0.013523,0.002678,0.000431,2.663424
3588000,0.0324,0.013523,0.002678,0.000431,2.663894
3589000,0.0324,0.013523,0.002678,0.000431,2.733706
3590000,0.0324,0.013523,0.002678,0.000431,2.727712
3591000,0.0324,0.013523,0.002678,0.000431,2.782950
3592000,0.0324,0.013523,0.002678,0.000431,2.717487
3593000,0.0324,0.013523,0.002678,0.000431,2.627813
3594000,0.0324,0.013523,0.002678,0.000431,2.635922
3595000,0.0324,0.013523,0.002678,0.000431,2.576335
3596000,0.0324,0.013523,0.002678,0.000431,2.745928
3597000,0.0324,0.013523,0.002678,0.000431,2.702090
3598000,0.0324,0.013523,0.002678,0.000431,2.729357
3599000,0.0324,0.013523,0.002678,0.000431,2.652729
3600000,0.0324,0.013523,0.002678,0.000431,2.605012
3601000,0.0324,0.013523,0.002678,0.000431,2.696449
3602000,0.0324,0.013523,0.002678,0.000431,2.598313
3603000,0.0324,0.013523,0.002678,0.000431,2.530734
3604000,0.0324,0.013523,0.002678,0.000431,2.588676
3605000,0.0324,0.013523,0.002678,0.000431,2.484781
3606000,0.0324,0.013523,0.002678,0.000431,2.683168
3607000,0.0324,0.013523,0.002678,0.000431,2.616530
3608000,0.0324,0.013523,0.002678,0.000431,2.564935
3609000,0.0324,0.013523,0.002678,0.000431,2.613239
3610000,0.0324,0.013523,0.002678,0.000431,2.635922
3611000,0.0324,0.013523,0.002678,0.000431,2.640976
3612000,0.0324,0.013523,0.002678,0.000431,2.642504
3613000,0.0324,0.013523,0.002678,0.000431,2.623112
3614000,0.0324,0.013523,0.002678,0.000431,2.530264
3615000,0.0324,0.013523,0.002678,0.000431,2.671181
3616000,0.0324,0.013523,0.002678,0.000431,2.576805
3617000,0.0324,0.013523,0.002678,0.000431,2.485133
3618000,0.0324,0.013523,0.002678,0.000431,2.630281
3619000,0.0324,0.013523,0.002678,0.000431,2.642739
3620000,0.0324,0.013523,0.002678,0.000431,2.577276
3621000,0.0324,0.013523,0.002678,0.000431,2.601134
3622000,0.0324,0.013523,0.002678,0.000431,2.509344
3623000,0.0324,0.013523,0.002678,0.000431,2.612887
3624000,0.0324,0.013523,0.002678,0.000431,2.580801
3625000,0.0324,0.013523,0.002678,0.000431,2.486074
3626000,0.0324,0.013523,0.002678,0.000431,2.494066
3627000,0.0324,0.013523,0.002678,0.000431,2.396752
3628000,0.0324,0.013523,0.002678,0.000431,2.385234
3629000,0.0324,0.013523,0.002678,0.000431,2.349858
3630000,0.0324,0.013523,0.002678,0.000431,2.300027
3631000,0.0324,0.013523,0.002678,0.000431,2.291094
3632000,0.0324,0.013523,0.002678,0.000431,2.374069
3633000,0.0324,0.013523,0.002678,0.000431,2.413911
3634000,0.0324,0.013523,0.002678,0.000431,2.300732
3635000,0.0324,0.013523,0.002678,0.000431,2.269587
3636000,0.0324,0.013523,0.002678,0.000431,2.243613
3637000,0.0324,0.013523,0.002678,0.000431,2.244201
3638000,0.0324,0.013523,0.002678,0.000431,2.220813
3639000,0.0324,0.013523,0.002678,0.000431,2.207532
3640000,0.0324,0.013523,0.002678,0.000431,2.126320
3641000,0.0324,0.013523,0.002678,0.000431,2.096820
3642000,0.0324,0.013523,0.002678,0.000431,2.107515
3643000,0.0324,0.013523,0.002678,0.000431,2.033708
3644000,0.0324,0.013523,0.002678,0.000431,2.091296
3645000,0.0324,0.013523,0.002678,0.000431,2.081307
3646000,0.0324,0.013523,0.002678,0.000431,1.984111
3647000,0.0324,0.013523,0.002678,0.000431,2.030769
3648000,0.0324,0.013523,0.002678,0.000431,1.974473
3649000,0.0324,0.013523,0.002678,0.000431,1.922526
3650000,0.0324,0.013523,0.002678,0.000431,1.857650
3651000,0.0324,0.013523,0.002678,0.000431,1.867875
3652000,0.0324,0.013523,0.002678,0.000431,1.809111
3653000,0.0324,0.013523,0.002678,0.000431,1.711916
3654000,0.0324,0.013523,0.002678,0.000431,1.766919
3655000,0.0324,0.013523,0.002678,0.000431,1.754813
3656000,0.0324,0.013523,0.002678,0.000431,1.718262
3657000,0.0324,0.013523,0.002678,0.000431,1.670075
3658000,0.0324,0.013523,0.002678,0.000431,1.644102
3659000,0.0324,0.013523,0.002678,0.000431,1.591449
3660000,0.0324,0.013523,0.002678,0.000431,1.545378
3661000,0.0324,0.013523,0.002678,0.000431,1.492020
3662000,0.0324,0.013523,0.002678,0.000431,1.483206
3663000,0.0324,0.013523,0.002678,0.000431,1.421973
3664000,0.0324,0.013523,0.002678,0.000431,1.381779
3665000,0.0324,0.013523,0.002678,0.000431,1.330066
3666000,0.0324,0.013523,0.002678,0.000431,1.324073
3667000,0.0324,0.013523,0.002678,0.000431,1.259079
3668000,0.0324,0.013523,0.002678,0.000431,1.310674
3669000,0.0324,0.013523,0.002678,0.000431,1.205016
3670000,0.0324,0.013523,0.002678,0.000431,1.164469
3671000,0.0324,0.013523,0.002678,0.000431,1.112169
3672000,0.0324,0.013523,0.002678,0.000431,1.087488
3673000,0.0324,0.013523,0.002678,0.000431,1.062690
3674000,0.0324,0.013523,0.002678,0.000431,0.966317
3675000,0.0324,0.013523,0.002678,0.000431,0.952801
3676000,0.0324,0.013523,0.002678,0.000431,0.900971
3677000,0.0324,0.013523,0.002678,0.000431,0.848083
3678000,0.0324,0.013523,0.002678,0.000431,0.832805
3679000,0.0324,0.013523,0.002678,0.000431,0.767106
3680000,0.0324,0.013523,0.002678,0.000431,0.748302
3681000,0.0324,0.013523,0.002678,0.000431,0.717510
3682000,0.0324,0.013523,0.002678,0.000431,0.669205
3683000,0.0324,0.013523,0.002678,0.000431,0.665092
3684000,0.0324,0.013523,0.002678,0.000431,0.623134
3685000,0.0324,0.013523,0.002678,0.000431,0.607856
3686000,0.0324,0.013523,0.002678,0.000431,0.567426
3687000,0.0324,0.013523,0.002678,0.000431,0.542275
3688000,0.0324,0.013523,0.002678,0.000431,0.525469
3689000,0.0324,0.013523,0.002678,0.000431,0.481278
3690000,0.0324,0.013523,0.002678,0.000431,0.493148
3691000,0.0324,0.013523,0.002678,0.000431,0.462944
3692000,0.0324,0.013523,0.002678,0.000431,0.449310
3693000,0.0324,0.013523,0.002678,0.000431,0.413934
3694000,0.0324,0.013523,0.002678,0.000431,0.404885
3695000,0.0324,0.013523,0.002678,0.000431,0.389606
3696000,0.0324,0.013523,0.002678,0.000431,0.376443
3697000,0.0324,0.013523,0.002678,0.000431,0.352349
3698000,0.0324,0.013523,0.002678,0.000431,0.350822
3699000,0.0324,0.013523,0.002678,0.000431,0.327904
3700000,0.0324,0.013523,0.002678,0.000431,0.312507
3701000,0.0324,0.013523,0.002678,0.000431,0.301225
3702000,0.0324,0.013523,0.002678,0.000431,0.302988
3703000,0.0324,0.013523,0.002678,0.000431,0.279012
3704000,0.0324,0.013523,0.002678,0.000431,0.272665
3705000,0.0324,0.013523,0.002678,0.000431,0.252451
3706000,0.0324,0.013523,0.002678,0.000431,0.241403
3707000,0.0324,0.013523,0.002678,0.000431,0.236114
3708000,0.0324,0.013523,0.002678,0.000431,0.237172
3709000,0.0324,0.013523,0.002678,0.000431,0.224126
3710000,0.0324,0.013523,0.002678,0.000431,0.212021
3711000,0.0324,0.013523,0.002678,0.000431,0.209553
3712000,0.0324,0.013523,0.002678,0.000431,0.194039
3713000,0.0324,0.013523,0.002678,0.000431,0.189455
3714000,0.0324,0.013523,0.002678,0.000431,0.177468
3715000,0.0324,0.013523,0.002678,0.000431,0.181346
3716000,0.0324,0.013523,0.002678,0.000431,0.171474
3717000,0.0324,0.013523,0.002678,0.000431,0.165010
3718000,0.0324,0.013523,0.002678,0.000431,0.156548
3719000,0.0324,0.013523,0.002678,0.000431,0.148791
3720000,0.0324,0.013523,0.002678,0.000431,0.145147
3721000,0.0324,0.013523,0.002678,0.000431,0.141504
3722000,0.0324,0.013523,0.002678,0.000431,0.135157
3723000,0.0324,0.013523,0.002678,0.000431,0.128341
3724000,0.0324,0.013523,0.002678,0.000431,0.125050
3725000,0.0324,0.013523,0.002678,0.000431,0.122582
3726000,0.0324,0.013523,0.002678,0.000431,0.118821
3727000,0.0324,0.013523,0.002678,0.000431,0.107656
3728000,0.0324,0.013523,0.002678,0.000431,0.104247
3729000,0.0324,0.013523,0.002678,0.000431,0.095903
3730000,0.0324,0.013523,0.002678,0.000431,0.090497
3731000,0.0324,0.013523,0.002678,0.000431,0.085443
3732000,0.0324,0.013523,0.002678,0.000431,0.085796
3733000,0.0324,0.013523,0.002678,0.000431,0.080037
3734000,0.0324,0.013523,0.002678,0.000431,0.074043
3735000,0.0324,0.013523,0.002678,0.000431,0.069694
3736000,0.0324,0.013523,0.002678,0.000431,0.068989
3737000,0.0324,0.013523,0.002678,0.000431,0.069224
3738000,0.0324,0.013523,0.002678,0.000431,0.065228
3739000,0.0324,0.013523,0.002678,0.000431,0.058294
3740000,0.0324,0.013523,0.002678,0.000431,0.054886
3741000,0.0324,0.013523,0.002678,0.000431,0.056061
3742000,0.0324,0.013523,0.002678,0.000431,0.052418
3743000,0.0324,0.013523,0.002678,0.000431,0.050420
3744000,0.0324,0.013523,0.002678,0.000431,0.051007
3745000,0.0324,0.013523,0.002678,0.000431,0.048422
3746000,0.0324,0.013523,0.002678,0.000431,0.046894
3747000,0.0324,0.013523,0.002678,0.000431,0.046071
3748000,0.0324,0.013523,0.002678,0.000431,0.045601
3749000,0.0324,0.013523,0.002678,0.000431,0.042545
3750000,0.0324,0.013523,0.002678,0.000431,0.040665
3751000,0.0324,0.013523,0.002678,0.000431,0.039842
3752000,0.0324,0.013523,0.002678,0.000431,0.036434
3753000,0.0324,0.013523,0.002678,0.000431,0.035258
3754000,0.0324,0.013523,0.002678,0.000431,0.034436
3755000,0.0324,0.013523,0.002678,0.000431,0.034083
3756000,0.0324,0.013523,0.002678,0.000431,0.031968
3757000,0.0324,0.013523,0.002678,0.000431,0.031968
3758000,0.0324,0.013523,0.002678,0.000431,0.028207
3759000,0.0324,0.013523,0.002678,0.000431,0.027972
3760000,0.0324,0.013523,0.002678,0.000431,0.026561
3761000,0.0324,0.013523,0.002678,0.000431,0.024798
3762000,0.0324,0.013523,0.002678,0.000431,0.026209
3763000,0.0324,0.013523,0.002678,0.000431,0.026796
3764000,0.0324,0.013523,0.002678,0.000431,0.024211
3765000,0.0324,0.013523,0.002678,0.000431,0.022565
3766000,0.0324,0.013523,0.002678,0.000431,0.021038
3767000,0.0324,0.013523,0.002678,0.000431,0.021273
3768000,0.0324,0.013523,0.002678,0.000431,0.019627
3769000,0.0324,0.013523,0.002678,0.000431,0.016924
3770000,0.0324,0.013523,0.002678,0.000431,0.015631
3771000,0.0324,0.013523,0.002678,0.000431,0.014573
3772000,0.0324,0.013523,0.002678,0.000431,0.013868
3773000,0.0324,0.013523,0.002678,0.000431,0.013163
3774000,0.0324,0.013523,0.002678,0.000431,0.013046
3775000,0.0324,0.013523,0.002678,0.000431,0.012223
3776000,0.0324,0.013523,0.002678,0.000431,0.011870
3777000,0.0324,0.013523,0.002678,0.000431,0.009402
3778000,0.0324,0.013523,0.002678,0.000431,0.010107
3779000,0.0324,0.013523,0.002678,0.000431,0.010460
3780000,0.0324,0.013523,0.002678,0.000431,0.010695
3781000,0.0324,0.013523,0.002678,0.000431,0.010460
3782000,0.0324,0.013523,0.002678,0.000431,0.010460
3783000,0.0324,0.013523,0.002678,0.000431,0.009990
3784000,0.0324,0.013523,0.002678,0.000431,0.010107
3785000,0.0324,0.013523,0.002678,0.000431,0.010930
3786000,0.0324,0.013523,0.002678,0.000431,0.010107
3787000,0.0324,0.013523,0.002678,0.000431,0.008932
3788000,0.0324,0.013523,0.002678,0.000431,0.009050
3789000,0.0324,0.013523,0.002678,0.000431,0.009755
3790000,0.0324,0.013523,0.002678,0.000431,0.008462
3791000,0.0324,0.013523,0.002678,0.000431,0.009050
3792000,0.0324,0.013523,0.002678,0.000431,0.008109
3793000,0.0324,0.013523,0.002678,0.000431,0.008109
3794000,0.0324,0.013523,0.002678,0.000431,0.008345
3795000,0.0324,0.013523,0.002678,0.000431,0.006347
3796000,0.0324,0.013523,0.002678,0.000431,0.006582
3797000,0.0324,0.013523,0.002678,0.000431,0.006817
3798000,0.0324,0.013523,0.002678,0.000431,0.006229
3799000,0.0324,0.013523,0.002678,0.000431,0.005406
3800000,0.0324,0.013523,0.002678,0.000431,0.005759
3801000,0.0324,0.013523,0.002678,0.000431,0.005759
3802000,0.0324,0.013523,0.002678,0.000431,0.005054
3803000,0.0324,0.013523,0.002678,0.000431,0.006111
3804000,0.0324,0.013523,0.002678,0.000431,0.005054
3805000,0.0324,0.013523,0.002678,0.000431,0.005054
3806000,0.0324,0.013523,0.002678,0.000431,0.004466
3807000,0.0324,0.013523,0.002678,0.000431,0.004349
3808000,0.0324,0.013523,0.002678,0.000431,0.003643
3809000,0.0324,0.013523,0.002678,0.000431,0.003761
3810000,0.0324,0.013523,0.002678,0.000431,0.003643
3811000,0.0324,0.013523,0.002678,0.000431,0.003291
3812000,0.0324,0.013523,0.002678,0.000431,0.003056
3813000,0.0324,0.013523,0.002678,0.000431,0.002468
3814000,0.0324,0.013523,0.002678,0.000431,0.002821
3815000,0.0324,0.013523,0.002678,0.000431,0.002468
3816000,0.0324,0.013523,0.002678,0.000431,0.002468
3817000,0.0324,0.013523,0.002678,0.000431,0.002938
3818000,0.0324,0.013523,0.002678,0.000431,0.002703
3819000,0.0324,0.013523,0.002678,0.000431,0.002233
3820000,0.0324,0.013523,0.002678,0.000431,0.002703
3821000,0.0324,0.013523,0.002678,0.000431,0.002586
3822000,0.0324,0.013523,0.002678,0.000431,0.002703
3823000,0.0324,0.013523,0.002678,0.000431,0.002703
3824000,0.0324,0.013523,0.002678,0.000431,0.002586
3825000,0.0324,0.013523,0.002678,0.000431,0.002586
3826000,0.0324,0.013523,0.002678,0.000431,0.002821
3827000,0.0324,0.013523,0.002678,0.000431,0.002938
3828000,0.0324,0.013523,0.002678,0.000431,0.002703
3829000,0.0324,0.013523,0.002678,0.000431,0.002233
3830000,0.0324,0.013523,0.002678,0.000431,0.001998
3831000,0.0324,0.013523,0.002678,0.000431,0.001998
3832000,0.0324,0.013523,0.002678,0.000431,0.002233
3833000,0.0324,0.013523,0.002678,0.000431,0.001998
3834000,0.0324,0.013523,0.002678,0.000431,0.001880
3835000,0.0324,0.013523,0.002678,0.000431,0.002351
3836000,0.0324,0.013523,0.002678,0.000431,0.002116
3837000,0.0324,0.013523,0.002678,0.000431,0.002938
3838000,0.0324,0.013523,0.002678,0.000431,0.002468
3839000,0.0324,0.013523,0.002678,0.000431,0.001998
3840000,0.0324,0.013523,0.002678,0.000431,0.001763
3841000,0.0324,0.013523,0.002678,0.000431,0.001293
3842000,0.0324,0.013523,0.002678,0.000431,0.000940
