Cycle,Area(mm^2),PeakDynamic(W),SubthresholdLeakage(W),GateLeakage(W),RunTimeDynamic(W)
1000,0.0324,0.013523,0.002678,0.000431,0.000000
2000,0.0324,0.013523,0.002678,0.000431,0.000000
3000,0.0324,0.013523,0.002678,0.000431,0.000000
4000,0.0324,0.013523,0.002678,0.000431,0.000000
5000,0.0324,0.013523,0.002678,0.000431,0.000000
6000,0.0324,0.013523,0.002678,0.000431,1.711445
7000,0.0324,0.013523,0.002678,0.000431,1.410456
8000,0.0324,0.013523,0.002678,0.000431,2.356558
9000,0.0324,0.013523,0.002678,0.000431,1.471923
10000,0.0324,0.013523,0.002678,0.000431,1.276121
11000,0.0324,0.013523,0.002678,0.000431,1.477329
12000,0.0324,0.013523,0.002678,0.000431,1.325365
13000,0.0324,0.013523,0.002678,0.000431,1.106293
14000,0.0324,0.013523,0.002678,0.000431,0.993701
15000,0.0324,0.013523,0.002678,0.000431,0.876995
16000,0.0324,0.013523,0.002678,0.000431,0.794843
17000,0.0324,0.013523,0.002678,0.000431,0.728205
18000,0.0324,0.013523,0.002678,0.000431,0.697647
19000,0.0324,0.013523,0.002678,0.000431,0.657805
20000,0.0324,0.013523,0.002678,0.000431,0.654044
21000,0.0324,0.013523,0.002678,0.000431,0.658275
22000,0.0324,0.013523,0.002678,0.000431,0.664034
23000,0.0324,0.013523,0.002678,0.000431,0.623840
24000,0.0324,0.013523,0.002678,0.000431,0.555908
25000,0.0324,0.013523,0.002678,0.000431,0.521825
26000,0.0324,0.013523,0.002678,0.000431,0.497614
27000,0.0324,0.013523,0.002678,0.000431,0.502903
28000,0.0324,0.013523,0.002678,0.000431,0.527466
29000,0.0324,0.013523,0.002678,0.000431,0.514773
30000,0.0324,0.013523,0.002678,0.000431,0.544391
31000,0.0324,0.013523,0.002678,0.000431,0.541805
32000,0.0324,0.013523,0.002678,0.000431,0.585760
33000,0.0324,0.013523,0.002678,0.000431,0.503256
34000,0.0324,0.013523,0.002678,0.000431,0.499495
35000,0.0324,0.013523,0.002678,0.000431,0.463179
36000,0.0324,0.013523,0.002678,0.000431,0.473756
37000,0.0324,0.013523,0.002678,0.000431,0.439203
38000,0.0324,0.013523,0.002678,0.000431,0.521237
39000,0.0324,0.013523,0.002678,0.000431,0.498672
40000,0.0324,0.013523,0.002678,0.000431,0.398656
41000,0.0324,0.013523,0.002678,0.000431,0.395835
42000,0.0324,0.013523,0.002678,0.000431,0.378206
43000,0.0324,0.013523,0.002678,0.000431,0.376090
44000,0.0324,0.013523,0.002678,0.000431,0.433091
45000,0.0324,0.013523,0.002678,0.000431,0.430506
46000,0.0324,0.013523,0.002678,0.000431,0.429683
47000,0.0324,0.013523,0.002678,0.000431,0.402534
48000,0.0324,0.013523,0.002678,0.000431,0.397715
49000,0.0324,0.013523,0.002678,0.000431,0.360812
50000,0.0324,0.013523,0.002678,0.000431,0.393719
51000,0.0324,0.013523,0.002678,0.000431,0.376443
52000,0.0324,0.013523,0.002678,0.000431,0.364220
53000,0.0324,0.013523,0.002678,0.000431,0.394777
54000,0.0324,0.013523,0.002678,0.000431,0.369861
55000,0.0324,0.013523,0.002678,0.000431,0.318736
56000,0.0324,0.013523,0.002678,0.000431,0.332017
57000,0.0324,0.013523,0.002678,0.000431,0.358108
58000,0.0324,0.013523,0.002678,0.000431,0.421926
59000,0.0324,0.013523,0.002678,0.000431,0.401594
60000,0.0324,0.013523,0.002678,0.000431,0.428273
61000,0.0324,0.013523,0.002678,0.000431,0.410056
62000,0.0324,0.013523,0.002678,0.000431,0.337423
63000,0.0324,0.013523,0.002678,0.000431,0.401829
64000,0.0324,0.013523,0.002678,0.000431,0.375267
65000,0.0324,0.013523,0.002678,0.000431,0.387138
66000,0.0324,0.013523,0.002678,0.000431,0.340362
67000,0.0324,0.013523,0.002678,0.000431,0.305926
68000,0.0324,0.013523,0.002678,0.000431,0.328139
69000,0.0324,0.013523,0.002678,0.000431,0.324965
70000,0.0324,0.013523,0.002678,0.000431,0.373152
71000,0.0324,0.013523,0.002678,0.000431,0.343887
72000,0.0324,0.013523,0.002678,0.000431,0.291822
73000,0.0324,0.013523,0.002678,0.000431,0.325788
74000,0.0324,0.013523,0.002678,0.000431,0.403592
75000,0.0324,0.013523,0.002678,0.000431,0.372329
76000,0.0324,0.013523,0.002678,0.000431,0.403827
77000,0.0324,0.013523,0.002678,0.000431,0.371742
78000,0.0324,0.013523,0.002678,0.000431,0.399948
79000,0.0324,0.013523,0.002678,0.000431,0.412994
80000,0.0324,0.013523,0.002678,0.000431,0.370331
81000,0.0324,0.013523,0.002678,0.000431,0.292998
82000,0.0324,0.013523,0.002678,0.000431,0.289824
83000,0.0324,0.013523,0.002678,0.000431,0.353290
84000,0.0324,0.013523,0.002678,0.000431,0.333075
85000,0.0324,0.013523,0.002678,0.000431,0.308041
86000,0.0324,0.013523,0.002678,0.000431,0.319559
87000,0.0324,0.013523,0.002678,0.000431,0.297699
88000,0.0324,0.013523,0.002678,0.000431,0.376090
89000,0.0324,0.013523,0.002678,0.000431,0.368451
90000,0.0324,0.013523,0.002678,0.000431,0.373505
91000,0.0324,0.013523,0.002678,0.000431,0.358931
92000,0.0324,0.013523,0.002678,0.000431,0.346238
93000,0.0324,0.013523,0.002678,0.000431,0.334838
94000,0.0324,0.013523,0.002678,0.000431,0.344240
95000,0.0324,0.013523,0.002678,0.000431,0.320264
96000,0.0324,0.013523,0.002678,0.000431,0.262558
97000,0.0324,0.013523,0.002678,0.000431,0.269140
98000,0.0324,0.013523,0.002678,0.000431,0.252098
99000,0.0324,0.013523,0.002678,0.000431,0.255154
100000,0.0324,0.013523,0.002678,0.000431,0.277014
101000,0.0324,0.013523,0.002678,0.000431,0.274311
102000,0.0324,0.013523,0.002678,0.000431,0.281362
103000,0.0324,0.013523,0.002678,0.000431,0.313918
104000,0.0324,0.013523,0.002678,0.000431,0.299932
105000,0.0324,0.013523,0.002678,0.000431,0.289354
106000,0.0324,0.013523,0.002678,0.000431,0.262793
107000,0.0324,0.013523,0.002678,0.000431,0.305221
108000,0.0324,0.013523,0.002678,0.000431,0.288649
109000,0.0324,0.013523,0.002678,0.000431,0.225537
110000,0.0324,0.013523,0.002678,0.000431,0.238230
111000,0.0324,0.013523,0.002678,0.000431,0.267847
112000,0.0324,0.013523,0.002678,0.000431,0.308394
113000,0.0324,0.013523,0.002678,0.000431,0.299932
114000,0.0324,0.013523,0.002678,0.000431,0.253978
115000,0.0324,0.013523,0.002678,0.000431,0.262675
116000,0.0324,0.013523,0.002678,0.000431,0.336013
117000,0.0324,0.013523,0.002678,0.000431,0.348941
118000,0.0324,0.013523,0.002678,0.000431,0.310392
119000,0.0324,0.013523,0.002678,0.000431,0.312155
120000,0.0324,0.013523,0.002678,0.000431,0.364455
121000,0.0324,0.013523,0.002678,0.000431,0.371624
122000,0.0324,0.013523,0.002678,0.000431,0.346708
123000,0.0324,0.013523,0.002678,0.000431,0.376678
124000,0.0324,0.013523,0.002678,0.000431,0.364102
125000,0.0324,0.013523,0.002678,0.000431,0.292293
126000,0.0324,0.013523,0.002678,0.000431,0.314976
127000,0.0324,0.013523,0.002678,0.000431,0.329902
128000,0.0324,0.013523,0.002678,0.000431,0.366335
129000,0.0324,0.013523,0.002678,0.000431,0.378558
130000,0.0324,0.013523,0.002678,0.000431,0.328374
131000,0.0324,0.013523,0.002678,0.000431,0.374445
132000,0.0324,0.013523,0.002678,0.000431,0.358343
133000,0.0324,0.013523,0.002678,0.000431,0.386668
134000,0.0324,0.013523,0.002678,0.000431,0.417578
135000,0.0324,0.013523,0.002678,0.000431,0.372917
136000,0.0324,0.013523,0.002678,0.000431,0.404767
137000,0.0324,0.013523,0.002678,0.000431,0.336836
138000,0.0324,0.013523,0.002678,0.000431,0.296994
139000,0.0324,0.013523,0.002678,0.000431,0.328609
140000,0.0324,0.013523,0.002678,0.000431,0.355758
141000,0.0324,0.013523,0.002678,0.000431,0.412759
142000,0.0324,0.013523,0.002678,0.000431,0.360224
143000,0.0324,0.013523,0.002678,0.000431,0.326258
144000,0.0324,0.013523,0.002678,0.000431,0.392309
145000,0.0324,0.013523,0.002678,0.000431,0.337188
146000,0.0324,0.013523,0.002678,0.000431,0.300755
147000,0.0324,0.013523,0.002678,0.000431,0.401241
148000,0.0324,0.013523,0.002678,0.000431,0.515008
149000,0.0324,0.013523,0.002678,0.000431,0.434502
150000,0.0324,0.013523,0.002678,0.000431,0.401476
151000,0.0324,0.013523,0.002678,0.000431,0.328609
152000,0.0324,0.013523,0.002678,0.000431,0.318384
153000,0.0324,0.013523,0.002678,0.000431,0.386080
154000,0.0324,0.013523,0.002678,0.000431,0.453424
155000,0.0324,0.013523,0.002678,0.000431,0.422866
156000,0.0324,0.013523,0.002678,0.000431,0.386785
157000,0.0324,0.013523,0.002678,0.000431,0.425687
158000,0.0324,0.013523,0.002678,0.000431,0.485156
159000,0.0324,0.013523,0.002678,0.000431,0.407705
160000,0.0324,0.013523,0.002678,0.000431,0.378088
161000,0.0324,0.013523,0.002678,0.000431,0.374680
162000,0.0324,0.013523,0.002678,0.000431,0.384787
163000,0.0324,0.013523,0.002678,0.000431,0.374210
164000,0.0324,0.013523,0.002678,0.000431,0.436382
165000,0.0324,0.013523,0.002678,0.000431,0.426862
166000,0.0324,0.013523,0.002678,0.000431,0.432621
167000,0.0324,0.013523,0.002678,0.000431,0.339539
168000,0.0324,0.013523,0.002678,0.000431,0.411231
169000,0.0324,0.013523,0.002678,0.000431,0.422866
170000,0.0324,0.013523,0.002678,0.000431,0.575536
171000,0.0324,0.013523,0.002678,0.000431,0.412994
172000,0.0324,0.013523,0.002678,0.000431,0.418753
173000,0.0324,0.013523,0.002678,0.000431,0.502668
174000,0.0324,0.013523,0.002678,0.000431,0.453659
175000,0.0324,0.013523,0.002678,0.000431,0.375032
176000,0.0324,0.013523,0.002678,0.000431,0.462826
177000,0.0324,0.013523,0.002678,0.000431,0.462591
178000,0.0324,0.013523,0.002678,0.000431,0.455774
179000,0.0324,0.013523,0.002678,0.000431,0.482101
180000,0.0324,0.013523,0.002678,0.000431,0.476577
181000,0.0324,0.013523,0.002678,0.000431,0.512893
182000,0.0324,0.013523,0.002678,0.000431,0.542745
183000,0.0324,0.013523,0.002678,0.000431,0.640529
184000,0.0324,0.013523,0.002678,0.000431,0.612674
185000,0.0324,0.013523,0.002678,0.000431,0.581647
186000,0.0324,0.013523,0.002678,0.000431,0.586231
187000,0.0324,0.013523,0.002678,0.000431,0.590227
188000,0.0324,0.013523,0.002678,0.000431,0.607033
189000,0.0324,0.013523,0.002678,0.000431,0.535223
190000,0.0324,0.013523,0.002678,0.000431,0.599276
191000,0.0324,0.013523,0.002678,0.000431,0.720330
192000,0.0324,0.013523,0.002678,0.000431,0.617728
193000,0.0324,0.013523,0.002678,0.000431,0.711986
194000,0.0324,0.013523,0.002678,0.000431,0.607621
195000,0.0324,0.013523,0.002678,0.000431,0.683309
196000,0.0324,0.013523,0.002678,0.000431,0.730555
197000,0.0324,0.013523,0.002678,0.000431,0.679430
198000,0.0324,0.013523,0.002678,0.000431,0.750417
199000,0.0324,0.013523,0.002678,0.000431,0.718215
200000,0.0324,0.013523,0.002678,0.000431,0.578239
201000,0.0324,0.013523,0.002678,0.000431,0.725031
202000,0.0324,0.013523,0.002678,0.000431,0.674142
203000,0.0324,0.013523,0.002678,0.000431,0.696825
204000,0.0324,0.013523,0.002678,0.000431,0.661331
205000,0.0324,0.013523,0.002678,0.000431,0.840562
206000,0.0324,0.013523,0.002678,0.000431,0.615143
207000,0.0324,0.013523,0.002678,0.000431,0.751358
208000,0.0324,0.013523,0.002678,0.000431,0.676140
209000,0.0324,0.013523,0.002678,0.000431,0.666267
210000,0.0324,0.013523,0.002678,0.000431,0.755236
211000,0.0324,0.013523,0.002678,0.000431,0.671203
212000,0.0324,0.013523,0.002678,0.000431,0.825048
213000,0.0324,0.013523,0.002678,0.000431,0.758879
214000,0.0324,0.013523,0.002678,0.000431,0.774746
215000,0.0324,0.013523,0.002678,0.000431,0.941988
216000,0.0324,0.013523,0.002678,0.000431,0.850199
217000,0.0324,0.013523,0.002678,0.000431,0.939168
218000,0.0324,0.013523,0.002678,0.000431,0.931528
219000,0.0324,0.013523,0.002678,0.000431,0.936935
220000,0.0324,0.013523,0.002678,0.000431,0.971605
221000,0.0324,0.013523,0.002678,0.000431,1.002280
222000,0.0324,0.013523,0.002678,0.000431,1.020380
223000,0.0324,0.013523,0.002678,0.000431,0.984651
224000,0.0324,0.013523,0.002678,0.000431,1.092189
225000,0.0324,0.013523,0.002678,0.000431,0.999577
226000,0.0324,0.013523,0.002678,0.000431,1.200550
227000,0.0324,0.013523,0.002678,0.000431,1.060457
228000,0.0324,0.013523,0.002678,0.000431,1.157535
229000,0.0324,0.013523,0.002678,0.000431,1.118398
230000,0.0324,0.013523,0.002678,0.000431,1.200668
231000,0.0324,0.013523,0.002678,0.000431,1.178925
232000,0.0324,0.013523,0.002678,0.000431,1.122394
233000,0.0324,0.013523,0.002678,0.000431,0.440848
234000,0.0324,0.013523,0.002678,0.000431,0.068872
235000,0.0324,0.013523,0.002678,0.000431,0.029617
236000,0.0324,0.013523,0.002678,0.000431,0.026091
237000,0.0324,0.013523,0.002678,0.000431,0.026444
238000,0.0324,0.013523,0.002678,0.000431,0.025034
239000,0.0324,0.013523,0.002678,0.000431,0.024916
240000,0.0324,0.013523,0.002678,0.000431,0.025856
241000,0.0324,0.013523,0.002678,0.000431,0.023388
242000,0.0324,0.013523,0.002678,0.000431,0.022918
243000,0.0324,0.013523,0.002678,0.000431,0.022918
244000,0.0324,0.013523,0.002678,0.000431,0.021273
245000,0.0324,0.013523,0.002678,0.000431,0.022095
246000,0.0324,0.013523,0.002678,0.000431,0.021743
247000,0.0324,0.013523,0.002678,0.000431,0.020450
248000,0.0324,0.013523,0.002678,0.000431,0.020097
249000,0.0324,0.013523,0.002678,0.000431,0.020685
250000,0.0324,0.013523,0.002678,0.000431,0.020450
251000,0.0324,0.013523,0.002678,0.000431,0.020450
252000,0.0324,0.013523,0.002678,0.000431,0.018687
253000,0.0324,0.013523,0.002678,0.000431,0.019510
254000,0.0324,0.013523,0.002678,0.000431,0.016807
255000,0.0324,0.013523,0.002678,0.000431,0.017982
256000,0.0324,0.013523,0.002678,0.000431,0.018334
257000,0.0324,0.013523,0.002678,0.000431,0.018569
258000,0.0324,0.013523,0.002678,0.000431,0.016924
259000,0.0324,0.013523,0.002678,0.000431,0.017042
260000,0.0324,0.013523,0.002678,0.000431,0.018569
261000,0.0324,0.013523,0.002678,0.000431,0.017747
262000,0.0324,0.013523,0.002678,0.000431,0.016101
263000,0.0324,0.013523,0.002678,0.000431,0.017512
264000,0.0324,0.013523,0.002678,0.000431,0.017864
265000,0.0324,0.013523,0.002678,0.000431,0.015866
266000,0.0324,0.013523,0.002678,0.000431,0.014926
267000,0.0324,0.013523,0.002678,0.000431,0.016807
268000,0.0324,0.013523,0.002678,0.000431,0.013046
269000,0.0324,0.013523,0.002678,0.000431,0.014926
270000,0.0324,0.013523,0.002678,0.000431,0.014573
271000,0.0324,0.013523,0.002678,0.000431,0.013398
272000,0.0324,0.013523,0.002678,0.000431,0.014338
273000,0.0324,0.013523,0.002678,0.000431,0.014691
274000,0.0324,0.013523,0.002678,0.000431,0.014338
275000,0.0324,0.013523,0.002678,0.000431,0.012693
276000,0.0324,0.013523,0.002678,0.000431,0.013986
277000,0.0324,0.013523,0.002678,0.000431,0.013163
278000,0.0324,0.013523,0.002678,0.000431,0.012811
279000,0.0324,0.013523,0.002678,0.000431,0.013751
280000,0.0324,0.013523,0.002678,0.000431,0.012576
281000,0.0324,0.013523,0.002678,0.000431,0.012458
282000,0.0324,0.013523,0.002678,0.000431,0.012105
283000,0.0324,0.013523,0.002678,0.000431,0.013751
284000,0.0324,0.013523,0.002678,0.000431,0.012811
285000,0.0324,0.013523,0.002678,0.000431,0.012458
286000,0.0324,0.013523,0.002678,0.000431,0.013281
287000,0.0324,0.013523,0.002678,0.000431,0.013281
288000,0.0324,0.013523,0.002678,0.000431,0.011635
289000,0.0324,0.013523,0.002678,0.000431,0.012458
290000,0.0324,0.013523,0.002678,0.000431,0.013751
291000,0.0324,0.013523,0.002678,0.000431,0.012223
292000,0.0324,0.013523,0.002678,0.000431,0.012693
293000,0.0324,0.013523,0.002678,0.000431,0.013633
294000,0.0324,0.013523,0.002678,0.000431,0.012340
295000,0.0324,0.013523,0.002678,0.000431,0.012105
296000,0.0324,0.013523,0.002678,0.000431,0.013868
297000,0.0324,0.013523,0.002678,0.000431,0.013398
298000,0.0324,0.013523,0.002678,0.000431,0.011400
299000,0.0324,0.013523,0.002678,0.000431,0.012340
300000,0.0324,0.013523,0.002678,0.000431,0.012105
301000,0.0324,0.013523,0.002678,0.000431,0.010813
302000,0.0324,0.013523,0.002678,0.000431,0.009990
303000,0.0324,0.013523,0.002678,0.000431,0.012340
304000,0.0324,0.013523,0.002678,0.000431,0.011165
305000,0.0324,0.013523,0.002678,0.000431,0.009872
306000,0.0324,0.013523,0.002678,0.000431,0.010460
307000,0.0324,0.013523,0.002678,0.000431,0.011048
308000,0.0324,0.013523,0.002678,0.000431,0.009990
309000,0.0324,0.013523,0.002678,0.000431,0.010695
310000,0.0324,0.013523,0.002678,0.000431,0.011048
311000,0.0324,0.013523,0.002678,0.000431,0.010695
312000,0.0324,0.013523,0.002678,0.000431,0.011048
313000,0.0324,0.013523,0.002678,0.000431,0.012458
314000,0.0324,0.013523,0.002678,0.000431,0.009637
315000,0.0324,0.013523,0.002678,0.000431,0.009167
316000,0.0324,0.013523,0.002678,0.000431,0.009990
317000,0.0324,0.013523,0.002678,0.000431,0.011165
318000,0.0324,0.013523,0.002678,0.000431,0.010813
319000,0.0324,0.013523,0.002678,0.000431,0.009872
320000,0.0324,0.013523,0.002678,0.000431,0.009637
321000,0.0324,0.013523,0.002678,0.000431,0.009167
322000,0.0324,0.013523,0.002678,0.000431,0.009167
323000,0.0324,0.013523,0.002678,0.000431,0.009755
324000,0.0324,0.013523,0.002678,0.000431,0.009167
325000,0.0324,0.013523,0.002678,0.000431,0.008109
326000,0.0324,0.013523,0.002678,0.000431,0.009402
327000,0.0324,0.013523,0.002678,0.000431,0.009755
328000,0.0324,0.013523,0.002678,0.000431,0.007522
329000,0.0324,0.013523,0.002678,0.000431,0.009520
330000,0.0324,0.013523,0.002678,0.000431,0.009990
331000,0.0324,0.013523,0.002678,0.000431,0.008580
332000,0.0324,0.013523,0.002678,0.000431,0.007757
333000,0.0324,0.013523,0.002678,0.000431,0.008815
334000,0.0324,0.013523,0.002678,0.000431,0.007874
335000,0.0324,0.013523,0.002678,0.000431,0.007404
336000,0.0324,0.013523,0.002678,0.000431,0.008462
337000,0.0324,0.013523,0.002678,0.000431,0.007992
338000,0.0324,0.013523,0.002678,0.000431,0.007287
339000,0.0324,0.013523,0.002678,0.000431,0.007992
340000,0.0324,0.013523,0.002678,0.000431,0.009285
341000,0.0324,0.013523,0.002678,0.000431,0.007287
342000,0.0324,0.013523,0.002678,0.000431,0.007169
343000,0.0324,0.013523,0.002678,0.000431,0.008932
344000,0.0324,0.013523,0.002678,0.000431,0.008580
345000,0.0324,0.013523,0.002678,0.000431,0.006699
346000,0.0324,0.013523,0.002678,0.000431,0.007169
347000,0.0324,0.013523,0.002678,0.000431,0.008462
348000,0.0324,0.013523,0.002678,0.000431,0.007404
349000,0.0324,0.013523,0.002678,0.000431,0.007404
350000,0.0324,0.013523,0.002678,0.000431,0.008109
351000,0.0324,0.013523,0.002678,0.000431,0.007287
352000,0.0324,0.013523,0.002678,0.000431,0.006934
353000,0.0324,0.013523,0.002678,0.000431,0.008932
354000,0.0324,0.013523,0.002678,0.000431,0.007404
355000,0.0324,0.013523,0.002678,0.000431,0.006699
356000,0.0324,0.013523,0.002678,0.000431,0.007287
357000,0.0324,0.013523,0.002678,0.000431,0.007522
358000,0.0324,0.013523,0.002678,0.000431,0.007052
359000,0.0324,0.013523,0.002678,0.000431,0.006934
360000,0.0324,0.013523,0.002678,0.000431,0.008109
361000,0.0324,0.013523,0.002678,0.000431,0.006817
362000,0.0324,0.013523,0.002678,0.000431,0.006699
363000,0.0324,0.013523,0.002678,0.000431,0.007052
364000,0.0324,0.013523,0.002678,0.000431,0.008109
365000,0.0324,0.013523,0.002678,0.000431,0.007052
366000,0.0324,0.013523,0.002678,0.000431,0.007404
367000,0.0324,0.013523,0.002678,0.000431,0.007169
368000,0.0324,0.013523,0.002678,0.000431,0.007874
369000,0.0324,0.013523,0.002678,0.000431,0.006582
370000,0.0324,0.013523,0.002678,0.000431,0.007404
371000,0.0324,0.013523,0.002678,0.000431,0.006699
372000,0.0324,0.013523,0.002678,0.000431,0.006582
373000,0.0324,0.013523,0.002678,0.000431,0.006111
374000,0.0324,0.013523,0.002678,0.000431,0.007052
375000,0.0324,0.013523,0.002678,0.000431,0.006111
376000,0.0324,0.013523,0.002678,0.000431,0.007874
377000,0.0324,0.013523,0.002678,0.000431,0.005641
378000,0.0324,0.013523,0.002678,0.000431,0.006111
379000,0.0324,0.013523,0.002678,0.000431,0.005641
380000,0.0324,0.013523,0.002678,0.000431,0.006464
381000,0.0324,0.013523,0.002678,0.000431,0.005876
382000,0.0324,0.013523,0.002678,0.000431,0.006464
383000,0.0324,0.013523,0.002678,0.000431,0.005641
384000,0.0324,0.013523,0.002678,0.000431,0.006111
385000,0.0324,0.013523,0.002678,0.000431,0.005289
386000,0.0324,0.013523,0.002678,0.000431,0.006464
387000,0.0324,0.013523,0.002678,0.000431,0.006111
388000,0.0324,0.013523,0.002678,0.000431,0.005994
389000,0.0324,0.013523,0.002678,0.000431,0.005524
390000,0.0324,0.013523,0.002678,0.000431,0.006229
391000,0.0324,0.013523,0.002678,0.000431,0.005876
392000,0.0324,0.013523,0.002678,0.000431,0.006229
393000,0.0324,0.013523,0.002678,0.000431,0.005524
394000,0.0324,0.013523,0.002678,0.000431,0.006347
395000,0.0324,0.013523,0.002678,0.000431,0.006817
396000,0.0324,0.013523,0.002678,0.000431,0.005171
397000,0.0324,0.013523,0.002678,0.000431,0.006111
398000,0.0324,0.013523,0.002678,0.000431,0.005876
399000,0.0324,0.013523,0.002678,0.000431,0.005641
400000,0.0324,0.013523,0.002678,0.000431,0.005524
401000,0.0324,0.013523,0.002678,0.000431,0.006111
402000,0.0324,0.013523,0.002678,0.000431,0.005994
403000,0.0324,0.013523,0.002678,0.000431,0.005876
404000,0.0324,0.013523,0.002678,0.000431,0.004936
405000,0.0324,0.013523,0.002678,0.000431,0.005054
406000,0.0324,0.013523,0.002678,0.000431,0.004819
407000,0.0324,0.013523,0.002678,0.000431,0.005171
408000,0.0324,0.013523,0.002678,0.000431,0.004701
409000,0.0324,0.013523,0.002678,0.000431,0.005054
410000,0.0324,0.013523,0.002678,0.000431,0.004701
411000,0.0324,0.013523,0.002678,0.000431,0.005289
412000,0.0324,0.013523,0.002678,0.000431,0.005171
413000,0.0324,0.013523,0.002678,0.000431,0.004466
414000,0.0324,0.013523,0.002678,0.000431,0.005054
415000,0.0324,0.013523,0.002678,0.000431,0.004936
416000,0.0324,0.013523,0.002678,0.000431,0.004936
417000,0.0324,0.013523,0.002678,0.000431,0.005171
418000,0.0324,0.013523,0.002678,0.000431,0.004584
419000,0.0324,0.013523,0.002678,0.000431,0.004936
420000,0.0324,0.013523,0.002678,0.000431,0.004701
421000,0.0324,0.013523,0.002678,0.000431,0.004936
422000,0.0324,0.013523,0.002678,0.000431,0.004231
423000,0.0324,0.013523,0.002678,0.000431,0.005054
424000,0.0324,0.013523,0.002678,0.000431,0.004349
425000,0.0324,0.013523,0.002678,0.000431,0.004349
426000,0.0324,0.013523,0.002678,0.000431,0.004584
427000,0.0324,0.013523,0.002678,0.000431,0.004349
428000,0.0324,0.013523,0.002678,0.000431,0.004701
429000,0.0324,0.013523,0.002678,0.000431,0.004349
430000,0.0324,0.013523,0.002678,0.000431,0.004584
431000,0.0324,0.013523,0.002678,0.000431,0.004584
432000,0.0324,0.013523,0.002678,0.000431,0.004701
433000,0.0324,0.013523,0.002678,0.000431,0.004349
434000,0.0324,0.013523,0.002678,0.000431,0.004231
435000,0.0324,0.013523,0.002678,0.000431,0.004231
436000,0.0324,0.013523,0.002678,0.000431,0.004936
437000,0.0324,0.013523,0.002678,0.000431,0.004231
438000,0.0324,0.013523,0.002678,0.000431,0.004701
439000,0.0324,0.013523,0.002678,0.000431,0.004349
440000,0.0324,0.013523,0.002678,0.000431,0.004584
441000,0.0324,0.013523,0.002678,0.000431,0.003996
442000,0.0324,0.013523,0.002678,0.000431,0.004701
443000,0.0324,0.013523,0.002678,0.000431,0.004349
444000,0.0324,0.013523,0.002678,0.000431,0.004701
445000,0.0324,0.013523,0.002678,0.000431,0.004231
446000,0.0324,0.013523,0.002678,0.000431,0.004819
447000,0.0324,0.013523,0.002678,0.000431,0.003996
448000,0.0324,0.013523,0.002678,0.000431,0.004701
449000,0.0324,0.013523,0.002678,0.000431,0.004701
450000,0.0324,0.013523,0.002678,0.000431,0.004113
451000,0.0324,0.013523,0.002678,0.000431,0.004349
452000,0.0324,0.013523,0.002678,0.000431,0.004584
453000,0.0324,0.013523,0.002678,0.000431,0.004466
454000,0.0324,0.013523,0.002678,0.000431,0.004701
455000,0.0324,0.013523,0.002678,0.000431,0.004466
456000,0.0324,0.013523,0.002678,0.000431,0.004584
457000,0.0324,0.013523,0.002678,0.000431,0.003643
458000,0.0324,0.013523,0.002678,0.000431,0.004349
459000,0.0324,0.013523,0.002678,0.000431,0.004701
460000,0.0324,0.013523,0.002678,0.000431,0.004231
461000,0.0324,0.013523,0.002678,0.000431,0.004231
462000,0.0324,0.013523,0.002678,0.000431,0.004701
463000,0.0324,0.013523,0.002678,0.000431,0.003996
464000,0.0324,0.013523,0.002678,0.000431,0.005054
465000,0.0324,0.013523,0.002678,0.000431,0.004231
466000,0.0324,0.013523,0.002678,0.000431,0.004349
467000,0.0324,0.013523,0.002678,0.000431,0.003643
468000,0.0324,0.013523,0.002678,0.000431,0.004349
469000,0.0324,0.013523,0.002678,0.000431,0.003643
470000,0.0324,0.013523,0.002678,0.000431,0.003291
471000,0.0324,0.013523,0.002678,0.000431,0.002938
472000,0.0324,0.013523,0.002678,0.000431,0.003761
473000,0.0324,0.013523,0.002678,0.000431,0.003643
474000,0.0324,0.013523,0.002678,0.000431,0.002938
475000,0.0324,0.013523,0.002678,0.000431,0.003526
476000,0.0324,0.013523,0.002678,0.000431,0.003526
477000,0.0324,0.013523,0.002678,0.000431,0.003408
478000,0.0324,0.013523,0.002678,0.000431,0.003291
479000,0.0324,0.013523,0.002678,0.000431,0.003878
480000,0.0324,0.013523,0.002678,0.000431,0.003526
481000,0.0324,0.013523,0.002678,0.000431,0.003056
482000,0.0324,0.013523,0.002678,0.000431,0.003173
483000,0.0324,0.013523,0.002678,0.000431,0.003526
484000,0.0324,0.013523,0.002678,0.000431,0.002938
485000,0.0324,0.013523,0.002678,0.000431,0.003526
486000,0.0324,0.013523,0.002678,0.000431,0.003643
487000,0.0324,0.013523,0.002678,0.000431,0.003056
488000,0.0324,0.013523,0.002678,0.000431,0.003526
489000,0.0324,0.013523,0.002678,0.000431,0.003173
490000,0.0324,0.013523,0.002678,0.000431,0.003761
491000,0.0324,0.013523,0.002678,0.000431,0.003173
492000,0.0324,0.013523,0.002678,0.000431,0.003291
493000,0.0324,0.013523,0.002678,0.000431,0.003761
494000,0.0324,0.013523,0.002678,0.000431,0.003526
495000,0.0324,0.013523,0.002678,0.000431,0.003173
496000,0.0324,0.013523,0.002678,0.000431,0.003408
497000,0.0324,0.013523,0.002678,0.000431,0.003878
498000,0.0324,0.013523,0.002678,0.000431,0.002821
499000,0.0324,0.013523,0.002678,0.000431,0.003173
500000,0.0324,0.013523,0.002678,0.000431,0.003878
501000,0.0324,0.013523,0.002678,0.000431,0.003878
502000,0.0324,0.013523,0.002678,0.000431,0.002938
503000,0.0324,0.013523,0.002678,0.000431,0.003526
504000,0.0324,0.013523,0.002678,0.000431,0.003173
505000,0.0324,0.013523,0.002678,0.000431,0.002821
506000,0.0324,0.013523,0.002678,0.000431,0.002938
507000,0.0324,0.013523,0.002678,0.000431,0.003408
508000,0.0324,0.013523,0.002678,0.000431,0.003643
509000,0.0324,0.013523,0.002678,0.000431,0.002703
510000,0.0324,0.013523,0.002678,0.000431,0.002821
511000,0.0324,0.013523,0.002678,0.000431,0.002468
512000,0.0324,0.013523,0.002678,0.000431,0.002938
513000,0.0324,0.013523,0.002678,0.000431,0.002586
514000,0.0324,0.013523,0.002678,0.000431,0.002938
515000,0.0324,0.013523,0.002678,0.000431,0.002468
516000,0.0324,0.013523,0.002678,0.000431,0.002938
517000,0.0324,0.013523,0.002678,0.000431,0.002351
518000,0.0324,0.013523,0.002678,0.000431,0.002938
519000,0.0324,0.013523,0.002678,0.000431,0.002703
520000,0.0324,0.013523,0.002678,0.000431,0.002703
521000,0.0324,0.013523,0.002678,0.000431,0.002703
522000,0.0324,0.013523,0.002678,0.000431,0.002703
523000,0.0324,0.013523,0.002678,0.000431,0.002586
524000,0.0324,0.013523,0.002678,0.000431,0.002586
525000,0.0324,0.013523,0.002678,0.000431,0.002821
526000,0.0324,0.013523,0.002678,0.000431,0.002703
527000,0.0324,0.013523,0.002678,0.000431,0.002821
528000,0.0324,0.013523,0.002678,0.000431,0.002586
529000,0.0324,0.013523,0.002678,0.000431,0.003056
530000,0.0324,0.013523,0.002678,0.000431,0.002468
531000,0.0324,0.013523,0.002678,0.000431,0.002703
532000,0.0324,0.013523,0.002678,0.000431,0.002821
533000,0.0324,0.013523,0.002678,0.000431,0.002703
534000,0.0324,0.013523,0.002678,0.000431,0.002938
535000,0.0324,0.013523,0.002678,0.000431,0.002821
536000,0.0324,0.013523,0.002678,0.000431,0.002703
537000,0.0324,0.013523,0.002678,0.000431,0.002233
538000,0.0324,0.013523,0.002678,0.000431,0.002938
539000,0.0324,0.013523,0.002678,0.000431,0.002703
540000,0.0324,0.013523,0.002678,0.000431,0.002821
541000,0.0324,0.013523,0.002678,0.000431,0.002351
542000,0.0324,0.013523,0.002678,0.000431,0.002938
543000,0.0324,0.013523,0.002678,0.000431,0.002703
544000,0.0324,0.013523,0.002678,0.000431,0.002586
545000,0.0324,0.013523,0.002678,0.000431,0.002821
546000,0.0324,0.013523,0.002678,0.000431,0.002821
547000,0.0324,0.013523,0.002678,0.000431,0.002586
548000,0.0324,0.013523,0.002678,0.000431,0.002586
549000,0.0324,0.013523,0.002678,0.000431,0.002938
550000,0.0324,0.013523,0.002678,0.000431,0.002351
551000,0.0324,0.013523,0.002678,0.000431,0.002468
552000,0.0324,0.013523,0.002678,0.000431,0.003056
553000,0.0324,0.013523,0.002678,0.000431,0.002703
554000,0.0324,0.013523,0.002678,0.000431,0.002703
555000,0.0324,0.013523,0.002678,0.000431,0.002703
556000,0.0324,0.013523,0.002678,0.000431,0.002703
557000,0.0324,0.013523,0.002678,0.000431,0.002821
558000,0.0324,0.013523,0.002678,0.000431,0.002821
559000,0.0324,0.013523,0.002678,0.000431,0.002586
560000,0.0324,0.013523,0.002678,0.000431,0.003056
561000,0.0324,0.013523,0.002678,0.000431,0.002703
562000,0.0324,0.013523,0.002678,0.000431,0.002586
563000,0.0324,0.013523,0.002678,0.000431,0.002821
564000,0.0324,0.013523,0.002678,0.000431,0.002821
565000,0.0324,0.013523,0.002678,0.000431,0.002586
566000,0.0324,0.013523,0.002678,0.000431,0.002703
567000,0.0324,0.013523,0.002678,0.000431,0.003056
568000,0.0324,0.013523,0.002678,0.000431,0.002586
569000,0.0324,0.013523,0.002678,0.000431,0.002586
570000,0.0324,0.013523,0.002678,0.000431,0.003056
571000,0.0324,0.013523,0.002678,0.000431,0.002586
572000,0.0324,0.013523,0.002678,0.000431,0.002468
573000,0.0324,0.013523,0.002678,0.000431,0.003056
574000,0.0324,0.013523,0.002678,0.000431,0.002468
575000,0.0324,0.013523,0.002678,0.000431,0.002703
576000,0.0324,0.013523,0.002678,0.000431,0.002938
577000,0.0324,0.013523,0.002678,0.000431,0.002703
578000,0.0324,0.013523,0.002678,0.000431,0.002468
579000,0.0324,0.013523,0.002678,0.000431,0.002586
580000,0.0324,0.013523,0.002678,0.000431,0.002938
581000,0.0324,0.013523,0.002678,0.000431,0.002821
582000,0.0324,0.013523,0.002678,0.000431,0.002468
583000,0.0324,0.013523,0.002678,0.000431,0.002821
584000,0.0324,0.013523,0.002678,0.000431,0.002938
585000,0.0324,0.013523,0.002678,0.000431,0.002586
586000,0.0324,0.013523,0.002678,0.000431,0.002468
587000,0.0324,0.013523,0.002678,0.000431,0.003291
588000,0.0324,0.013523,0.002678,0.000431,0.002468
589000,0.0324,0.013523,0.002678,0.000431,0.002468
590000,0.0324,0.013523,0.002678,0.000431,0.002351
591000,0.0324,0.013523,0.002678,0.000431,0.002468
592000,0.0324,0.013523,0.002678,0.000431,0.002351
593000,0.0324,0.013523,0.002678,0.000431,0.002233
594000,0.0324,0.013523,0.002678,0.000431,0.002233
595000,0.0324,0.013523,0.002678,0.000431,0.002703
596000,0.0324,0.013523,0.002678,0.000431,0.001880
597000,0.0324,0.013523,0.002678,0.000431,0.002468
598000,0.0324,0.013523,0.002678,0.000431,0.002233
599000,0.0324,0.013523,0.002678,0.000431,0.002586
600000,0.0324,0.013523,0.002678,0.000431,0.002351
601000,0.0324,0.013523,0.002678,0.000431,0.002468
602000,0.0324,0.013523,0.002678,0.000431,0.002586
603000,0.0324,0.013523,0.002678,0.000431,0.001998
604000,0.0324,0.013523,0.002678,0.000431,0.002351
605000,0.0324,0.013523,0.002678,0.000431,0.002821
606000,0.0324,0.013523,0.002678,0.000431,0.002116
607000,0.0324,0.013523,0.002678,0.000431,0.002116
608000,0.0324,0.013523,0.002678,0.000431,0.002821
609000,0.0324,0.013523,0.002678,0.000431,0.002116
610000,0.0324,0.013523,0.002678,0.000431,0.002116
611000,0.0324,0.013523,0.002678,0.000431,0.002586
612000,0.0324,0.013523,0.002678,0.000431,0.002468
613000,0.0324,0.013523,0.002678,0.000431,0.002116
614000,0.0324,0.013523,0.002678,0.000431,0.002468
615000,0.0324,0.013523,0.002678,0.000431,0.002703
616000,0.0324,0.013523,0.002678,0.000431,0.002116
617000,0.0324,0.013523,0.002678,0.000431,0.002116
618000,0.0324,0.013523,0.002678,0.000431,0.002703
619000,0.0324,0.013523,0.002678,0.000431,0.002233
620000,0.0324,0.013523,0.002678,0.000431,0.002116
621000,0.0324,0.013523,0.002678,0.000431,0.002351
622000,0.0324,0.013523,0.002678,0.000431,0.002703
623000,0.0324,0.013523,0.002678,0.000431,0.002233
624000,0.0324,0.013523,0.002678,0.000431,0.001998
625000,0.0324,0.013523,0.002678,0.000431,0.002586
626000,0.0324,0.013523,0.002678,0.000431,0.002468
627000,0.0324,0.013523,0.002678,0.000431,0.002116
628000,0.0324,0.013523,0.002678,0.000431,0.002586
629000,0.0324,0.013523,0.002678,0.000431,0.002586
630000,0.0324,0.013523,0.002678,0.000431,0.002116
631000,0.0324,0.013523,0.002678,0.000431,0.002116
632000,0.0324,0.013523,0.002678,0.000431,0.002821
633000,0.0324,0.013523,0.002678,0.000431,0.001998
634000,0.0324,0.013523,0.002678,0.000431,0.002116
635000,0.0324,0.013523,0.002678,0.000431,0.002703
636000,0.0324,0.013523,0.002678,0.000431,0.002468
637000,0.0324,0.013523,0.002678,0.000431,0.001880
638000,0.0324,0.013523,0.002678,0.000431,0.002351
639000,0.0324,0.013523,0.002678,0.000431,0.002703
640000,0.0324,0.013523,0.002678,0.000431,0.002116
641000,0.0324,0.013523,0.002678,0.000431,0.002116
642000,0.0324,0.013523,0.002678,0.000431,0.002468
643000,0.0324,0.013523,0.002678,0.000431,0.002233
644000,0.0324,0.013523,0.002678,0.000431,0.001998
645000,0.0324,0.013523,0.002678,0.000431,0.002233
646000,0.0324,0.013523,0.002678,0.000431,0.002821
647000,0.0324,0.013523,0.002678,0.000431,0.002116
648000,0.0324,0.013523,0.002678,0.000431,0.002233
649000,0.0324,0.013523,0.002678,0.000431,0.002703
650000,0.0324,0.013523,0.002678,0.000431,0.002116
651000,0.0324,0.013523,0.002678,0.000431,0.001998
652000,0.0324,0.013523,0.002678,0.000431,0.002586
653000,0.0324,0.013523,0.002678,0.000431,0.002703
654000,0.0324,0.013523,0.002678,0.000431,0.001880
655000,0.0324,0.013523,0.002678,0.000431,0.002233
656000,0.0324,0.013523,0.002678,0.000431,0.002703
657000,0.0324,0.013523,0.002678,0.000431,0.002116
658000,0.0324,0.013523,0.002678,0.000431,0.002233
659000,0.0324,0.013523,0.002678,0.000431,0.003761
660000,0.0324,0.013523,0.002678,0.000431,0.001880
661000,0.0324,0.013523,0.002678,0.000431,0.001763
662000,0.0324,0.013523,0.002678,0.000431,0.001880
663000,0.0324,0.013523,0.002678,0.000431,0.002468
664000,0.0324,0.013523,0.002678,0.000431,0.001763
665000,0.0324,0.013523,0.002678,0.000431,0.001880
666000,0.0324,0.013523,0.002678,0.000431,0.002468
667000,0.0324,0.013523,0.002678,0.000431,0.001763
668000,0.0324,0.013523,0.002678,0.000431,0.001763
669000,0.0324,0.013523,0.002678,0.000431,0.002468
670000,0.0324,0.013523,0.002678,0.000431,0.001998
671000,0.0324,0.013523,0.002678,0.000431,0.001880
672000,0.0324,0.013523,0.002678,0.000431,0.001763
673000,0.0324,0.013523,0.002678,0.000431,0.002351
674000,0.0324,0.013523,0.002678,0.000431,0.001880
675000,0.0324,0.013523,0.002678,0.000431,0.001763
676000,0.0324,0.013523,0.002678,0.000431,0.002351
677000,0.0324,0.013523,0.002678,0.000431,0.001998
678000,0.0324,0.013523,0.002678,0.000431,0.001880
679000,0.0324,0.013523,0.002678,0.000431,0.002116
680000,0.0324,0.013523,0.002678,0.000431,0.002116
681000,0.0324,0.013523,0.002678,0.000431,0.001763
682000,0.0324,0.013523,0.002678,0.000431,0.002116
683000,0.0324,0.013523,0.002678,0.000431,0.002116
684000,0.0324,0.013523,0.002678,0.000431,0.002116
685000,0.0324,0.013523,0.002678,0.000431,0.001763
686000,0.0324,0.013523,0.002678,0.000431,0.002116
687000,0.0324,0.013523,0.002678,0.000431,0.002116
688000,0.0324,0.013523,0.002678,0.000431,0.001880
689000,0.0324,0.013523,0.002678,0.000431,0.002116
690000,0.0324,0.013523,0.002678,0.000431,0.002116
691000,0.0324,0.013523,0.002678,0.000431,0.001763
692000,0.0324,0.013523,0.002678,0.000431,0.002116
693000,0.0324,0.013523,0.002678,0.000431,0.002116
694000,0.0324,0.013523,0.002678,0.000431,0.002116
695000,0.0324,0.013523,0.002678,0.000431,0.001998
696000,0.0324,0.013523,0.002678,0.000431,0.001998
697000,0.0324,0.013523,0.002678,0.000431,0.002116
698000,0.0324,0.013523,0.002678,0.000431,0.001880
699000,0.0324,0.013523,0.002678,0.000431,0.001998
700000,0.0324,0.013523,0.002678,0.000431,0.002116
701000,0.0324,0.013523,0.002678,0.000431,0.002116
702000,0.0324,0.013523,0.002678,0.000431,0.001998
703000,0.0324,0.013523,0.002678,0.000431,0.001880
704000,0.0324,0.013523,0.002678,0.000431,0.002116
705000,0.0324,0.013523,0.002678,0.000431,0.001645
706000,0.0324,0.013523,0.002678,0.000431,0.002233
707000,0.0324,0.013523,0.002678,0.000431,0.002116
708000,0.0324,0.013523,0.002678,0.000431,0.001998
709000,0.0324,0.013523,0.002678,0.000431,0.001998
710000,0.0324,0.013523,0.002678,0.000431,0.001880
711000,0.0324,0.013523,0.002678,0.000431,0.002233
712000,0.0324,0.013523,0.002678,0.000431,0.001998
713000,0.0324,0.013523,0.002678,0.000431,0.001880
714000,0.0324,0.013523,0.002678,0.000431,0.002233
715000,0.0324,0.013523,0.002678,0.000431,0.001763
716000,0.0324,0.013523,0.002678,0.000431,0.001880
717000,0.0324,0.013523,0.002678,0.000431,0.002233
718000,0.0324,0.013523,0.002678,0.000431,0.001998
719000,0.0324,0.013523,0.002678,0.000431,0.002116
720000,0.0324,0.013523,0.002678,0.000431,0.001880
721000,0.0324,0.013523,0.002678,0.000431,0.001998
722000,0.0324,0.013523,0.002678,0.000431,0.001763
723000,0.0324,0.013523,0.002678,0.000431,0.001998
724000,0.0324,0.013523,0.002678,0.000431,0.002116
725000,0.0324,0.013523,0.002678,0.000431,0.001998
726000,0.0324,0.013523,0.002678,0.000431,0.002116
727000,0.0324,0.013523,0.002678,0.000431,0.001998
728000,0.0324,0.013523,0.002678,0.000431,0.001998
729000,0.0324,0.013523,0.002678,0.000431,0.001763
730000,0.0324,0.013523,0.002678,0.000431,0.002233
731000,0.0324,0.013523,0.002678,0.000431,0.001998
732000,0.0324,0.013523,0.002678,0.000431,0.002233
733000,0.0324,0.013523,0.002678,0.000431,0.001763
734000,0.0324,0.013523,0.002678,0.000431,0.001998
735000,0.0324,0.013523,0.002678,0.000431,0.002233
736000,0.0324,0.013523,0.002678,0.000431,0.001998
737000,0.0324,0.013523,0.002678,0.000431,0.001880
738000,0.0324,0.013523,0.002678,0.000431,0.002233
739000,0.0324,0.013523,0.002678,0.000431,0.001998
740000,0.0324,0.013523,0.002678,0.000431,0.001763
741000,0.0324,0.013523,0.002678,0.000431,0.002233
742000,0.0324,0.013523,0.002678,0.000431,0.002116
743000,0.0324,0.013523,0.002678,0.000431,0.001880
744000,0.0324,0.013523,0.002678,0.000431,0.001880
745000,0.0324,0.013523,0.002678,0.000431,0.002233
746000,0.0324,0.013523,0.002678,0.000431,0.001763
747000,0.0324,0.013523,0.002678,0.000431,0.002703
748000,0.0324,0.013523,0.002678,0.000431,0.001528
749000,0.0324,0.013523,0.002678,0.000431,0.001528
750000,0.0324,0.013523,0.002678,0.000431,0.001293
751000,0.0324,0.013523,0.002678,0.000431,0.001293
752000,0.0324,0.013523,0.002678,0.000431,0.001410
753000,0.0324,0.013523,0.002678,0.000431,0.001175
754000,0.0324,0.013523,0.002678,0.000431,0.001175
755000,0.0324,0.013523,0.002678,0.000431,0.001528
756000,0.0324,0.013523,0.002678,0.000431,0.001528
757000,0.0324,0.013523,0.002678,0.000431,0.001293
758000,0.0324,0.013523,0.002678,0.000431,0.001293
759000,0.0324,0.013523,0.002678,0.000431,0.001293
760000,0.0324,0.013523,0.002678,0.000431,0.001175
761000,0.0324,0.013523,0.002678,0.000431,0.001293
762000,0.0324,0.013523,0.002678,0.000431,0.001528
763000,0.0324,0.013523,0.002678,0.000431,0.001528
764000,0.0324,0.013523,0.002678,0.000431,0.001293
765000,0.0324,0.013523,0.002678,0.000431,0.001058
766000,0.0324,0.013523,0.002678,0.000431,0.001410
767000,0.0324,0.013523,0.002678,0.000431,0.001293
768000,0.0324,0.013523,0.002678,0.000431,0.001293
769000,0.0324,0.013523,0.002678,0.000431,0.001528
770000,0.0324,0.013523,0.002678,0.000431,0.001528
771000,0.0324,0.013523,0.002678,0.000431,0.000823
772000,0.0324,0.013523,0.002678,0.000431,0.001410
773000,0.0324,0.013523,0.002678,0.000431,0.001528
774000,0.0324,0.013523,0.002678,0.000431,0.001293
775000,0.0324,0.013523,0.002678,0.000431,0.001293
776000,0.0324,0.013523,0.002678,0.000431,0.001528
777000,0.0324,0.013523,0.002678,0.000431,0.001293
778000,0.0324,0.013523,0.002678,0.000431,0.001058
779000,0.0324,0.013523,0.002678,0.000431,0.001410
780000,0.0324,0.013523,0.002678,0.000431,0.001528
781000,0.0324,0.013523,0.002678,0.000431,0.001293
782000,0.0324,0.013523,0.002678,0.000431,0.001293
783000,0.0324,0.013523,0.002678,0.000431,0.001528
784000,0.0324,0.013523,0.002678,0.000431,0.000940
785000,0.0324,0.013523,0.002678,0.000431,0.001293
786000,0.0324,0.013523,0.002678,0.000431,0.001528
787000,0.0324,0.013523,0.002678,0.000431,0.001528
788000,0.0324,0.013523,0.002678,0.000431,0.001293
789000,0.0324,0.013523,0.002678,0.000431,0.001293
790000,0.0324,0.013523,0.002678,0.000431,0.001293
791000,0.0324,0.013523,0.002678,0.000431,0.001175
792000,0.0324,0.013523,0.002678,0.000431,0.001293
793000,0.0324,0.013523,0.002678,0.000431,0.001528
794000,0.0324,0.013523,0.002678,0.000431,0.001528
795000,0.0324,0.013523,0.002678,0.000431,0.001293
796000,0.0324,0.013523,0.002678,0.000431,0.001058
797000,0.0324,0.013523,0.002678,0.000431,0.001410
798000,0.0324,0.013523,0.002678,0.000431,0.001293
799000,0.0324,0.013523,0.002678,0.000431,0.001293
800000,0.0324,0.013523,0.002678,0.000431,0.001528
801000,0.0324,0.013523,0.002678,0.000431,0.001528
802000,0.0324,0.013523,0.002678,0.000431,0.000940
803000,0.0324,0.013523,0.002678,0.000431,0.001293
804000,0.0324,0.013523,0.002678,0.000431,0.001528
805000,0.0324,0.013523,0.002678,0.000431,0.001293
806000,0.0324,0.013523,0.002678,0.000431,0.001293
807000,0.0324,0.013523,0.002678,0.000431,0.001528
808000,0.0324,0.013523,0.002678,0.000431,0.001410
809000,0.0324,0.013523,0.002678,0.000431,0.000823
810000,0.0324,0.013523,0.002678,0.000431,0.001528
811000,0.0324,0.013523,0.002678,0.000431,0.001528
812000,0.0324,0.013523,0.002678,0.000431,0.001293
813000,0.0324,0.013523,0.002678,0.000431,0.001293
814000,0.0324,0.013523,0.002678,0.000431,0.001528
815000,0.0324,0.013523,0.002678,0.000431,0.001058
816000,0.0324,0.013523,0.002678,0.000431,0.001175
817000,0.0324,0.013523,0.002678,0.000431,0.001528
818000,0.0324,0.013523,0.002678,0.000431,0.001528
819000,0.0324,0.013523,0.002678,0.000431,0.001293
820000,0.0324,0.013523,0.002678,0.000431,0.001293
821000,0.0324,0.013523,0.002678,0.000431,0.001528
822000,0.0324,0.013523,0.002678,0.000431,0.000940
823000,0.0324,0.013523,0.002678,0.000431,0.001293
824000,0.0324,0.013523,0.002678,0.000431,0.001528
825000,0.0324,0.013523,0.002678,0.000431,0.001528
826000,0.0324,0.013523,0.002678,0.000431,0.001293
827000,0.0324,0.013523,0.002678,0.000431,0.001175
828000,0.0324,0.013523,0.002678,0.000431,0.001410
829000,0.0324,0.013523,0.002678,0.000431,0.001175
830000,0.0324,0.013523,0.002678,0.000431,0.001293
831000,0.0324,0.013523,0.002678,0.000431,0.001528
832000,0.0324,0.013523,0.002678,0.000431,0.001528
833000,0.0324,0.013523,0.002678,0.000431,0.001175
834000,0.0324,0.013523,0.002678,0.000431,0.001175
835000,0.0324,0.013523,0.002678,0.000431,0.001410
836000,0.0324,0.013523,0.002678,0.000431,0.001293
837000,0.0324,0.013523,0.002678,0.000431,0.001293
838000,0.0324,0.013523,0.002678,0.000431,0.002116
839000,0.0324,0.013523,0.002678,0.000431,0.001293
840000,0.0324,0.013523,0.002678,0.000431,0.000588
841000,0.0324,0.013523,0.002678,0.000431,0.000940
842000,0.0324,0.013523,0.002678,0.000431,0.001293
843000,0.0324,0.013523,0.002678,0.000431,0.000940
844000,0.0324,0.013523,0.002678,0.000431,0.000823
845000,0.0324,0.013523,0.002678,0.000431,0.001175
846000,0.0324,0.013523,0.002678,0.000431,0.001175
847000,0.0324,0.013523,0.002678,0.000431,0.000588
848000,0.0324,0.013523,0.002678,0.000431,0.001058
849000,0.0324,0.013523,0.002678,0.000431,0.001293
850000,0.0324,0.013523,0.002678,0.000431,0.000940
851000,0.0324,0.013523,0.002678,0.000431,0.000823
852000,0.0324,0.013523,0.002678,0.000431,0.001175
853000,0.0324,0.013523,0.002678,0.000431,0.001058
854000,0.0324,0.013523,0.002678,0.000431,0.000588
855000,0.0324,0.013523,0.002678,0.000431,0.001175
856000,0.0324,0.013523,0.002678,0.000431,0.001293
857000,0.0324,0.013523,0.002678,0.000431,0.000940
858000,0.0324,0.013523,0.002678,0.000431,0.000823
859000,0.0324,0.013523,0.002678,0.000431,0.001058
860000,0.0324,0.013523,0.002678,0.000431,0.000940
861000,0.0324,0.013523,0.002678,0.000431,0.000823
862000,0.0324,0.013523,0.002678,0.000431,0.001175
863000,0.0324,0.013523,0.002678,0.000431,0.001293
864000,0.0324,0.013523,0.002678,0.000431,0.000940
865000,0.0324,0.013523,0.002678,0.000431,0.000705
866000,0.0324,0.013523,0.002678,0.000431,0.001175
867000,0.0324,0.013523,0.002678,0.000431,0.000940
868000,0.0324,0.013523,0.002678,0.000431,0.000823
869000,0.0324,0.013523,0.002678,0.000431,0.001175
870000,0.0324,0.013523,0.002678,0.000431,0.001293
871000,0.0324,0.013523,0.002678,0.000431,0.000823
872000,0.0324,0.013523,0.002678,0.000431,0.000823
873000,0.0324,0.013523,0.002678,0.000431,0.001175
874000,0.0324,0.013523,0.002678,0.000431,0.000940
875000,0.0324,0.013523,0.002678,0.000431,0.000823
876000,0.0324,0.013523,0.002678,0.000431,0.001175
877000,0.0324,0.013523,0.002678,0.000431,0.001293
878000,0.0324,0.013523,0.002678,0.000431,0.000705
879000,0.0324,0.013523,0.002678,0.000431,0.000823
880000,0.0324,0.013523,0.002678,0.000431,0.001293
881000,0.0324,0.013523,0.002678,0.000431,0.000940
882000,0.0324,0.013523,0.002678,0.000431,0.000823
883000,0.0324,0.013523,0.002678,0.000431,0.001175
884000,0.0324,0.013523,0.002678,0.000431,0.001175
885000,0.0324,0.013523,0.002678,0.000431,0.000588
886000,0.0324,0.013523,0.002678,0.000431,0.001058
887000,0.0324,0.013523,0.002678,0.000431,0.001293
888000,0.0324,0.013523,0.002678,0.000431,0.000940
889000,0.0324,0.013523,0.002678,0.000431,0.000823
890000,0.0324,0.013523,0.002678,0.000431,0.001175
891000,0.0324,0.013523,0.002678,0.000431,0.000940
892000,0.0324,0.013523,0.002678,0.000431,0.000705
893000,0.0324,0.013523,0.002678,0.000431,0.001175
894000,0.0324,0.013523,0.002678,0.000431,0.001293
895000,0.0324,0.013523,0.002678,0.000431,0.000940
896000,0.0324,0.013523,0.002678,0.000431,0.000823
897000,0.0324,0.013523,0.002678,0.000431,0.001058
898000,0.0324,0.013523,0.002678,0.000431,0.000940
899000,0.0324,0.013523,0.002678,0.000431,0.000823
900000,0.0324,0.013523,0.002678,0.000431,0.001175
901000,0.0324,0.013523,0.002678,0.000431,0.001293
902000,0.0324,0.013523,0.002678,0.000431,0.000940
903000,0.0324,0.013523,0.002678,0.000431,0.000823
904000,0.0324,0.013523,0.002678,0.000431,0.001058
905000,0.0324,0.013523,0.002678,0.000431,0.000940
906000,0.0324,0.013523,0.002678,0.000431,0.000823
907000,0.0324,0.013523,0.002678,0.000431,0.001175
908000,0.0324,0.013523,0.002678,0.000431,0.001293
909000,0.0324,0.013523,0.002678,0.000431,0.000940
910000,0.0324,0.013523,0.002678,0.000431,0.000823
911000,0.0324,0.013523,0.002678,0.000431,0.001058
912000,0.0324,0.013523,0.002678,0.000431,0.000940
913000,0.0324,0.013523,0.002678,0.000431,0.000823
914000,0.0324,0.013523,0.002678,0.000431,0.001175
915000,0.0324,0.013523,0.002678,0.000431,0.001293
916000,0.0324,0.013523,0.002678,0.000431,0.000823
917000,0.0324,0.013523,0.002678,0.000431,0.000705
918000,0.0324,0.013523,0.002678,0.000431,0.001293
919000,0.0324,0.013523,0.002678,0.000431,0.000940
920000,0.0324,0.013523,0.002678,0.000431,0.000823
921000,0.0324,0.013523,0.002678,0.000431,0.001175
922000,0.0324,0.013523,0.002678,0.000431,0.001175
923000,0.0324,0.013523,0.002678,0.000431,0.000823
924000,0.0324,0.013523,0.002678,0.000431,0.000823
925000,0.0324,0.013523,0.002678,0.000431,0.001293
926000,0.0324,0.013523,0.002678,0.000431,0.000940
927000,0.0324,0.013523,0.002678,0.000431,0.000823
928000,0.0324,0.013523,0.002678,0.000431,0.001175
929000,0.0324,0.013523,0.002678,0.000431,0.001175
930000,0.0324,0.013523,0.002678,0.000431,0.000705
931000,0.0324,0.013523,0.002678,0.000431,0.000940
932000,0.0324,0.013523,0.002678,0.000431,0.001293
933000,0.0324,0.013523,0.002678,0.000431,0.000940
934000,0.0324,0.013523,0.002678,0.000431,0.000823
935000,0.0324,0.013523,0.002678,0.000431,0.001175
936000,0.0324,0.013523,0.002678,0.000431,0.001058
937000,0.0324,0.013523,0.002678,0.000431,0.000705
938000,0.0324,0.013523,0.002678,0.000431,0.001058
939000,0.0324,0.013523,0.002678,0.000431,0.001293
940000,0.0324,0.013523,0.002678,0.000431,0.000940
941000,0.0324,0.013523,0.002678,0.000431,0.000823
942000,0.0324,0.013523,0.002678,0.000431,0.001058
943000,0.0324,0.013523,0.002678,0.000431,0.001175
944000,0.0324,0.013523,0.002678,0.000431,0.000705
945000,0.0324,0.013523,0.002678,0.000431,0.001058
946000,0.0324,0.013523,0.002678,0.000431,0.001293
947000,0.0324,0.013523,0.002678,0.000431,0.000940
948000,0.0324,0.013523,0.002678,0.000431,0.000823
949000,0.0324,0.013523,0.002678,0.000431,0.001058
950000,0.0324,0.013523,0.002678,0.000431,0.001058
951000,0.0324,0.013523,0.002678,0.000431,0.000705
952000,0.0324,0.013523,0.002678,0.000431,0.001175
953000,0.0324,0.013523,0.002678,0.000431,0.001293
954000,0.0324,0.013523,0.002678,0.000431,0.000823
955000,0.0324,0.013523,0.002678,0.000431,0.000940
956000,0.0324,0.013523,0.002678,0.000431,0.001058
957000,0.0324,0.013523,0.002678,0.000431,0.001058
958000,0.0324,0.013523,0.002678,0.000431,0.000705
959000,0.0324,0.013523,0.002678,0.000431,0.001175
960000,0.0324,0.013523,0.002678,0.000431,0.001293
961000,0.0324,0.013523,0.002678,0.000431,0.000823
962000,0.0324,0.013523,0.002678,0.000431,0.000940
963000,0.0324,0.013523,0.002678,0.000431,0.001058
964000,0.0324,0.013523,0.002678,0.000431,0.000940
965000,0.0324,0.013523,0.002678,0.000431,0.000823
966000,0.0324,0.013523,0.002678,0.000431,0.001175
967000,0.0324,0.013523,0.002678,0.000431,0.001175
968000,0.0324,0.013523,0.002678,0.000431,0.000940
969000,0.0324,0.013523,0.002678,0.000431,0.000940
970000,0.0324,0.013523,0.002678,0.000431,0.001058
971000,0.0324,0.013523,0.002678,0.000431,0.000940
972000,0.0324,0.013523,0.002678,0.000431,0.000823
973000,0.0324,0.013523,0.002678,0.000431,0.001175
974000,0.0324,0.013523,0.002678,0.000431,0.001058
975000,0.0324,0.013523,0.002678,0.000431,0.001058
976000,0.0324,0.013523,0.002678,0.000431,0.000823
977000,0.0324,0.013523,0.002678,0.000431,0.001175
978000,0.0324,0.013523,0.002678,0.000431,0.000940
979000,0.0324,0.013523,0.002678,0.000431,0.000823
980000,0.0324,0.013523,0.002678,0.000431,0.001058
981000,0.0324,0.013523,0.002678,0.000431,0.001175
982000,0.0324,0.013523,0.002678,0.000431,0.001058
983000,0.0324,0.013523,0.002678,0.000431,0.000823
984000,0.0324,0.013523,0.002678,0.000431,0.001175
985000,0.0324,0.013523,0.002678,0.000431,0.000940
986000,0.0324,0.013523,0.002678,0.000431,0.000823
987000,0.0324,0.013523,0.002678,0.000431,0.001058
988000,0.0324,0.013523,0.002678,0.000431,0.001175
989000,0.0324,0.013523,0.002678,0.000431,0.001058
990000,0.0324,0.013523,0.002678,0.000431,0.000823
991000,0.0324,0.013523,0.002678,0.000431,0.001175
992000,0.0324,0.013523,0.002678,0.000431,0.000823
993000,0.0324,0.013523,0.002678,0.000431,0.000940
994000,0.0324,0.013523,0.002678,0.000431,0.001058
995000,0.0324,0.013523,0.002678,0.000431,0.001175
996000,0.0324,0.013523,0.002678,0.000431,0.001058
997000,0.0324,0.013523,0.002678,0.000431,0.000823
998000,0.0324,0.013523,0.002678,0.000431,0.001058
999000,0.0324,0.013523,0.002678,0.000431,0.000940
