Cycle,Area(mm^2),PeakDynamic(W),SubthresholdLeakage(W),GateLeakage(W),RunTimeDynamic(W)
11000000,0.0324,0.013523,0.002678,0.000431,0.001058
11001000,0.0324,0.013523,0.002678,0.000431,0.000940
11002000,0.0324,0.013523,0.002678,0.000431,0.001175
11003000,0.0324,0.013523,0.002678,0.000431,0.001175
11004000,0.0324,0.013523,0.002678,0.000431,0.001175
11005000,0.0324,0.013523,0.002678,0.000431,0.000823
11006000,0.0324,0.013523,0.002678,0.000431,0.001058
11007000,0.0324,0.013523,0.002678,0.000431,0.001293
11008000,0.0324,0.013523,0.002678,0.000431,0.000588
11009000,0.0324,0.013523,0.002678,0.000431,0.001175
11010000,0.0324,0.013523,0.002678,0.000431,0.000823
11011000,0.0324,0.013523,0.002678,0.000431,0.001058
11012000,0.0324,0.013523,0.002678,0.000431,0.001175
11013000,0.0324,0.013523,0.002678,0.000431,0.000588
11014000,0.0324,0.013523,0.002678,0.000431,0.001058
11015000,0.0324,0.013523,0.002678,0.000431,0.000823
11016000,0.0324,0.013523,0.002678,0.000431,0.001293
11017000,0.0324,0.013523,0.002678,0.000431,0.001175
11018000,0.0324,0.013523,0.002678,0.000431,0.000705
11019000,0.0324,0.013523,0.002678,0.000431,0.001175
11020000,0.0324,0.013523,0.002678,0.000431,0.001175
11021000,0.0324,0.013523,0.002678,0.000431,0.000588
11022000,0.0324,0.013523,0.002678,0.000431,0.000588
11023000,0.0324,0.013523,0.002678,0.000431,0.001175
11024000,0.0324,0.013523,0.002678,0.000431,0.000705
11025000,0.0324,0.013523,0.002678,0.000431,0.001175
11026000,0.0324,0.013523,0.002678,0.000431,0.000823
11027000,0.0324,0.013523,0.002678,0.000431,0.001058
11028000,0.0324,0.013523,0.002678,0.000431,0.001175
11029000,0.0324,0.013523,0.002678,0.000431,0.001175
11030000,0.0324,0.013523,0.002678,0.000431,0.001175
11031000,0.0324,0.013523,0.002678,0.000431,0.000940
11032000,0.0324,0.013523,0.002678,0.000431,0.000940
11033000,0.0324,0.013523,0.002678,0.000431,0.001410
11034000,0.0324,0.013523,0.002678,0.000431,0.000940
11035000,0.0324,0.013523,0.002678,0.000431,0.000940
11036000,0.0324,0.013523,0.002678,0.000431,0.001175
11037000,0.0324,0.013523,0.002678,0.000431,0.001175
11038000,0.0324,0.013523,0.002678,0.000431,0.000823
11039000,0.0324,0.013523,0.002678,0.000431,0.001175
11040000,0.0324,0.013523,0.002678,0.000431,0.001058
11041000,0.0324,0.013523,0.002678,0.000431,0.000705
11042000,0.0324,0.013523,0.002678,0.000431,0.001175
11043000,0.0324,0.013523,0.002678,0.000431,0.000588
11044000,0.0324,0.013523,0.002678,0.000431,0.000588
11045000,0.0324,0.013523,0.002678,0.000431,0.001293
11046000,0.0324,0.013523,0.002678,0.000431,0.001058
11047000,0.0324,0.013523,0.002678,0.000431,0.000940
11048000,0.0324,0.013523,0.002678,0.000431,0.001058
11049000,0.0324,0.013523,0.002678,0.000431,0.000588
11050000,0.0324,0.013523,0.002678,0.000431,0.001175
11051000,0.0324,0.013523,0.002678,0.000431,0.001293
11052000,0.0324,0.013523,0.002678,0.000431,0.001058
11053000,0.0324,0.013523,0.002678,0.000431,0.000705
11054000,0.0324,0.013523,0.002678,0.000431,0.000940
11055000,0.0324,0.013523,0.002678,0.000431,0.001175
11056000,0.0324,0.013523,0.002678,0.000431,0.001175
11057000,0.0324,0.013523,0.002678,0.000431,0.001175
11058000,0.0324,0.013523,0.002678,0.000431,0.001293
11059000,0.0324,0.013523,0.002678,0.000431,0.000823
11060000,0.0324,0.013523,0.002678,0.000431,0.001175
11061000,0.0324,0.013523,0.002678,0.000431,0.001175
11062000,0.0324,0.013523,0.002678,0.000431,0.001175
11063000,0.0324,0.013523,0.002678,0.000431,0.001175
11064000,0.0324,0.013523,0.002678,0.000431,0.000705
11065000,0.0324,0.013523,0.002678,0.000431,0.001293
11066000,0.0324,0.013523,0.002678,0.000431,0.001058
11067000,0.0324,0.013523,0.002678,0.000431,0.000940
11068000,0.0324,0.013523,0.002678,0.000431,0.001175
11069000,0.0324,0.013523,0.002678,0.000431,0.001175
11070000,0.0324,0.013523,0.002678,0.000431,0.001175
11071000,0.0324,0.013523,0.002678,0.000431,0.001058
11072000,0.0324,0.013523,0.002678,0.000431,0.000823
11073000,0.0324,0.013523,0.002678,0.000431,0.001293
11074000,0.0324,0.013523,0.002678,0.000431,0.001058
11075000,0.0324,0.013523,0.002678,0.000431,0.000940
11076000,0.0324,0.013523,0.002678,0.000431,0.001175
11077000,0.0324,0.013523,0.002678,0.000431,0.001175
11078000,0.0324,0.013523,0.002678,0.000431,0.001293
11079000,0.0324,0.013523,0.002678,0.000431,0.000588
11080000,0.0324,0.013523,0.002678,0.000431,0.000588
11081000,0.0324,0.013523,0.002678,0.000431,0.000588
11082000,0.0324,0.013523,0.002678,0.000431,0.001293
11083000,0.0324,0.013523,0.002678,0.000431,0.001058
11084000,0.0324,0.013523,0.002678,0.000431,0.000940
11085000,0.0324,0.013523,0.002678,0.000431,0.001175
11086000,0.0324,0.013523,0.002678,0.000431,0.000705
11087000,0.0324,0.013523,0.002678,0.000431,0.001058
11088000,0.0324,0.013523,0.002678,0.000431,0.001293
11089000,0.0324,0.013523,0.002678,0.000431,0.000940
11090000,0.0324,0.013523,0.002678,0.000431,0.000940
11091000,0.0324,0.013523,0.002678,0.000431,0.001175
11092000,0.0324,0.013523,0.002678,0.000431,0.001175
11093000,0.0324,0.013523,0.002678,0.000431,0.000705
11094000,0.0324,0.013523,0.002678,0.000431,0.001175
11095000,0.0324,0.013523,0.002678,0.000431,0.000705
11096000,0.0324,0.013523,0.002678,0.000431,0.001175
11097000,0.0324,0.013523,0.002678,0.000431,0.001175
11098000,0.0324,0.013523,0.002678,0.000431,0.000705
11099000,0.0324,0.013523,0.002678,0.000431,0.001175
11100000,0.0324,0.013523,0.002678,0.000431,0.001175
11101000,0.0324,0.013523,0.002678,0.000431,0.001175
11102000,0.0324,0.013523,0.002678,0.000431,0.000940
11103000,0.0324,0.013523,0.002678,0.000431,0.001175
11104000,0.0324,0.013523,0.002678,0.000431,0.001175
11105000,0.0324,0.013523,0.002678,0.000431,0.001175
11106000,0.0324,0.013523,0.002678,0.000431,0.000588
11107000,0.0324,0.013523,0.002678,0.000431,0.001058
11108000,0.0324,0.013523,0.002678,0.000431,0.000940
11109000,0.0324,0.013523,0.002678,0.000431,0.001175
11110000,0.0324,0.013523,0.002678,0.000431,0.001175
11111000,0.0324,0.013523,0.002678,0.000431,0.000588
11112000,0.0324,0.013523,0.002678,0.000431,0.001293
11113000,0.0324,0.013523,0.002678,0.000431,0.000470
11114000,0.0324,0.013523,0.002678,0.000431,0.001293
11115000,0.0324,0.013523,0.002678,0.000431,0.001058
11116000,0.0324,0.013523,0.002678,0.000431,0.000940
11117000,0.0324,0.013523,0.002678,0.000431,0.001175
11118000,0.0324,0.013523,0.002678,0.000431,0.001175
11119000,0.0324,0.013523,0.002678,0.000431,0.001175
11120000,0.0324,0.013523,0.002678,0.000431,0.000940
11121000,0.0324,0.013523,0.002678,0.000431,0.000940
11122000,0.0324,0.013523,0.002678,0.000431,0.000705
11123000,0.0324,0.013523,0.002678,0.000431,0.001175
11124000,0.0324,0.013523,0.002678,0.000431,0.001293
11125000,0.0324,0.013523,0.002678,0.000431,0.001058
11126000,0.0324,0.013523,0.002678,0.000431,0.000940
11127000,0.0324,0.013523,0.002678,0.000431,0.001175
11128000,0.0324,0.013523,0.002678,0.000431,0.001175
11129000,0.0324,0.013523,0.002678,0.000431,0.001175
11130000,0.0324,0.013523,0.002678,0.000431,0.000705
11131000,0.0324,0.013523,0.002678,0.000431,0.001175
11132000,0.0324,0.013523,0.002678,0.000431,0.000705
11133000,0.0324,0.013523,0.002678,0.000431,0.001175
11134000,0.0324,0.013523,0.002678,0.000431,0.001175
11135000,0.0324,0.013523,0.002678,0.000431,0.001175
11136000,0.0324,0.013523,0.002678,0.000431,0.000705
11137000,0.0324,0.013523,0.002678,0.000431,0.000823
11138000,0.0324,0.013523,0.002678,0.000431,0.001058
11139000,0.0324,0.013523,0.002678,0.000431,0.001175
11140000,0.0324,0.013523,0.002678,0.000431,0.001175
11141000,0.0324,0.013523,0.002678,0.000431,0.000940
11142000,0.0324,0.013523,0.002678,0.000431,0.001058
11143000,0.0324,0.013523,0.002678,0.000431,0.000588
11144000,0.0324,0.013523,0.002678,0.000431,0.000588
11145000,0.0324,0.013523,0.002678,0.000431,0.001058
11146000,0.0324,0.013523,0.002678,0.000431,0.000705
11147000,0.0324,0.013523,0.002678,0.000431,0.001058
11148000,0.0324,0.013523,0.002678,0.000431,0.000823
11149000,0.0324,0.013523,0.002678,0.000431,0.001293
11150000,0.0324,0.013523,0.002678,0.000431,0.001058
11151000,0.0324,0.013523,0.002678,0.000431,0.000940
11152000,0.0324,0.013523,0.002678,0.000431,0.001175
11153000,0.0324,0.013523,0.002678,0.000431,0.001175
11154000,0.0324,0.013523,0.002678,0.000431,0.000470
11155000,0.0324,0.013523,0.002678,0.000431,0.001410
11156000,0.0324,0.013523,0.002678,0.000431,0.000470
11157000,0.0324,0.013523,0.002678,0.000431,0.001293
11158000,0.0324,0.013523,0.002678,0.000431,0.000823
11159000,0.0324,0.013523,0.002678,0.000431,0.001175
11160000,0.0324,0.013523,0.002678,0.000431,0.001175
11161000,0.0324,0.013523,0.002678,0.000431,0.000588
11162000,0.0324,0.013523,0.002678,0.000431,0.000823
11163000,0.0324,0.013523,0.002678,0.000431,0.001058
11164000,0.0324,0.013523,0.002678,0.000431,0.000823
11165000,0.0324,0.013523,0.002678,0.000431,0.000940
11166000,0.0324,0.013523,0.002678,0.000431,0.001410
11167000,0.0324,0.013523,0.002678,0.000431,0.000470
11168000,0.0324,0.013523,0.002678,0.000431,0.000705
11169000,0.0324,0.013523,0.002678,0.000431,0.001175
11170000,0.0324,0.013523,0.002678,0.000431,0.000588
11171000,0.0324,0.013523,0.002678,0.000431,0.001058
11172000,0.0324,0.013523,0.002678,0.000431,0.000940
11173000,0.0324,0.013523,0.002678,0.000431,0.001175
11174000,0.0324,0.013523,0.002678,0.000431,0.001175
11175000,0.0324,0.013523,0.002678,0.000431,0.001175
11176000,0.0324,0.013523,0.002678,0.000431,0.000823
11177000,0.0324,0.013523,0.002678,0.000431,0.001058
11178000,0.0324,0.013523,0.002678,0.000431,0.001410
11179000,0.0324,0.013523,0.002678,0.000431,0.001058
11180000,0.0324,0.013523,0.002678,0.000431,0.000940
11181000,0.0324,0.013523,0.002678,0.000431,0.001058
11182000,0.0324,0.013523,0.002678,0.000431,0.001175
11183000,0.0324,0.013523,0.002678,0.000431,0.000705
11184000,0.0324,0.013523,0.002678,0.000431,0.001175
11185000,0.0324,0.013523,0.002678,0.000431,0.001175
11186000,0.0324,0.013523,0.002678,0.000431,0.000705
11187000,0.0324,0.013523,0.002678,0.000431,0.000705
11188000,0.0324,0.013523,0.002678,0.000431,0.001175
11189000,0.0324,0.013523,0.002678,0.000431,0.001175
11190000,0.0324,0.013523,0.002678,0.000431,0.001175
11191000,0.0324,0.013523,0.002678,0.000431,0.001175
11192000,0.0324,0.013523,0.002678,0.000431,0.000940
11193000,0.0324,0.013523,0.002678,0.000431,0.000940
11194000,0.0324,0.013523,0.002678,0.000431,0.000705
11195000,0.0324,0.013523,0.002678,0.000431,0.001175
11196000,0.0324,0.013523,0.002678,0.000431,0.001175
11197000,0.0324,0.013523,0.002678,0.000431,0.000940
11198000,0.0324,0.013523,0.002678,0.000431,0.001058
11199000,0.0324,0.013523,0.002678,0.000431,0.001293
11200000,0.0324,0.013523,0.002678,0.000431,0.001175
11201000,0.0324,0.013523,0.002678,0.000431,0.000823
11202000,0.0324,0.013523,0.002678,0.000431,0.001058
11203000,0.0324,0.013523,0.002678,0.000431,0.001175
11204000,0.0324,0.013523,0.002678,0.000431,0.001175
11205000,0.0324,0.013523,0.002678,0.000431,0.001175
11206000,0.0324,0.013523,0.002678,0.000431,0.000705
11207000,0.0324,0.013523,0.002678,0.000431,0.001410
11208000,0.0324,0.013523,0.002678,0.000431,0.000940
11209000,0.0324,0.013523,0.002678,0.000431,0.000705
11210000,0.0324,0.013523,0.002678,0.000431,0.001175
11211000,0.0324,0.013523,0.002678,0.000431,0.000940
11212000,0.0324,0.013523,0.002678,0.000431,0.001058
11213000,0.0324,0.013523,0.002678,0.000431,0.001293
11214000,0.0324,0.013523,0.002678,0.000431,0.001175
11215000,0.0324,0.013523,0.002678,0.000431,0.000705
11216000,0.0324,0.013523,0.002678,0.000431,0.001175
11217000,0.0324,0.013523,0.002678,0.000431,0.001175
11218000,0.0324,0.013523,0.002678,0.000431,0.001058
11219000,0.0324,0.013523,0.002678,0.000431,0.001058
11220000,0.0324,0.013523,0.002678,0.000431,0.000940
11221000,0.0324,0.013523,0.002678,0.000431,0.001410
11222000,0.0324,0.013523,0.002678,0.000431,0.000470
11223000,0.0324,0.013523,0.002678,0.000431,0.000705
11224000,0.0324,0.013523,0.002678,0.000431,0.001175
11225000,0.0324,0.013523,0.002678,0.000431,0.001175
11226000,0.0324,0.013523,0.002678,0.000431,0.000705
11227000,0.0324,0.013523,0.002678,0.000431,0.001175
11228000,0.0324,0.013523,0.002678,0.000431,0.001293
11229000,0.0324,0.013523,0.002678,0.000431,0.001058
11230000,0.0324,0.013523,0.002678,0.000431,0.000705
11231000,0.0324,0.013523,0.002678,0.000431,0.001058
11232000,0.0324,0.013523,0.002678,0.000431,0.000823
11233000,0.0324,0.013523,0.002678,0.000431,0.000705
11234000,0.0324,0.013523,0.002678,0.000431,0.001175
11235000,0.0324,0.013523,0.002678,0.000431,0.000705
11236000,0.0324,0.013523,0.002678,0.000431,0.001175
11237000,0.0324,0.013523,0.002678,0.000431,0.001175
11238000,0.0324,0.013523,0.002678,0.000431,0.001058
11239000,0.0324,0.013523,0.002678,0.000431,0.000940
11240000,0.0324,0.013523,0.002678,0.000431,0.001058
11241000,0.0324,0.013523,0.002678,0.000431,0.001293
11242000,0.0324,0.013523,0.002678,0.000431,0.001058
11243000,0.0324,0.013523,0.002678,0.000431,0.000940
11244000,0.0324,0.013523,0.002678,0.000431,0.001058
11245000,0.0324,0.013523,0.002678,0.000431,0.000588
11246000,0.0324,0.013523,0.002678,0.000431,0.001293
11247000,0.0324,0.013523,0.002678,0.000431,0.001058
11248000,0.0324,0.013523,0.002678,0.000431,0.000940
11249000,0.0324,0.013523,0.002678,0.000431,0.001175
11250000,0.0324,0.013523,0.002678,0.000431,0.001175
11251000,0.0324,0.013523,0.002678,0.000431,0.001175
11252000,0.0324,0.013523,0.002678,0.000431,0.001175
11253000,0.0324,0.013523,0.002678,0.000431,0.000705
11254000,0.0324,0.013523,0.002678,0.000431,0.000588
11255000,0.0324,0.013523,0.002678,0.000431,0.000823
11256000,0.0324,0.013523,0.002678,0.000431,0.001175
11257000,0.0324,0.013523,0.002678,0.000431,0.001175
11258000,0.0324,0.013523,0.002678,0.000431,0.001175
11259000,0.0324,0.013523,0.002678,0.000431,0.001058
11260000,0.0324,0.013523,0.002678,0.000431,0.001058
11261000,0.0324,0.013523,0.002678,0.000431,0.000940
11262000,0.0324,0.013523,0.002678,0.000431,0.000705
11263000,0.0324,0.013523,0.002678,0.000431,0.000705
11264000,0.0324,0.013523,0.002678,0.000431,0.001058
11265000,0.0324,0.013523,0.002678,0.000431,0.000823
11266000,0.0324,0.013523,0.002678,0.000431,0.001058
11267000,0.0324,0.013523,0.002678,0.000431,0.000705
11268000,0.0324,0.013523,0.002678,0.000431,0.001058
11269000,0.0324,0.013523,0.002678,0.000431,0.001410
11270000,0.0324,0.013523,0.002678,0.000431,0.001175
11271000,0.0324,0.013523,0.002678,0.000431,0.000588
11272000,0.0324,0.013523,0.002678,0.000431,0.000588
11273000,0.0324,0.013523,0.002678,0.000431,0.000823
11274000,0.0324,0.013523,0.002678,0.000431,0.001175
11275000,0.0324,0.013523,0.002678,0.000431,0.001058
11276000,0.0324,0.013523,0.002678,0.000431,0.001293
11277000,0.0324,0.013523,0.002678,0.000431,0.000588
11278000,0.0324,0.013523,0.002678,0.000431,0.000470
11279000,0.0324,0.013523,0.002678,0.000431,0.001293
11280000,0.0324,0.013523,0.002678,0.000431,0.000588
11281000,0.0324,0.013523,0.002678,0.000431,0.001175
11282000,0.0324,0.013523,0.002678,0.000431,0.000940
11283000,0.0324,0.013523,0.002678,0.000431,0.001058
11284000,0.0324,0.013523,0.002678,0.000431,0.000823
11285000,0.0324,0.013523,0.002678,0.000431,0.001175
11286000,0.0324,0.013523,0.002678,0.000431,0.001175
11287000,0.0324,0.013523,0.002678,0.000431,0.000470
11288000,0.0324,0.013523,0.002678,0.000431,0.000705
11289000,0.0324,0.013523,0.002678,0.000431,0.001175
11290000,0.0324,0.013523,0.002678,0.000431,0.000588
11291000,0.0324,0.013523,0.002678,0.000431,0.000588
11292000,0.0324,0.013523,0.002678,0.000431,0.000470
11293000,0.0324,0.013523,0.002678,0.000431,0.000705
11294000,0.0324,0.013523,0.002678,0.000431,0.001175
11295000,0.0324,0.013523,0.002678,0.000431,0.001175
11296000,0.0324,0.013523,0.002678,0.000431,0.000705
11297000,0.0324,0.013523,0.002678,0.000431,0.001175
11298000,0.0324,0.013523,0.002678,0.000431,0.000705
11299000,0.0324,0.013523,0.002678,0.000431,0.001175
11300000,0.0324,0.013523,0.002678,0.000431,0.000470
11301000,0.0324,0.013523,0.002678,0.000431,0.001293
11302000,0.0324,0.013523,0.002678,0.000431,0.001058
11303000,0.0324,0.013523,0.002678,0.000431,0.000940
11304000,0.0324,0.013523,0.002678,0.000431,0.001175
11305000,0.0324,0.013523,0.002678,0.000431,0.001175
11306000,0.0324,0.013523,0.002678,0.000431,0.000470
11307000,0.0324,0.013523,0.002678,0.000431,0.000588
11308000,0.0324,0.013523,0.002678,0.000431,0.000588
11309000,0.0324,0.013523,0.002678,0.000431,0.000823
11310000,0.0324,0.013523,0.002678,0.000431,0.001058
11311000,0.0324,0.013523,0.002678,0.000431,0.001175
11312000,0.0324,0.013523,0.002678,0.000431,0.001293
11313000,0.0324,0.013523,0.002678,0.000431,0.001293
11314000,0.0324,0.013523,0.002678,0.000431,0.001410
11315000,0.0324,0.013523,0.002678,0.000431,0.001175
11316000,0.0324,0.013523,0.002678,0.000431,0.001175
11317000,0.0324,0.013523,0.002678,0.000431,0.000823
11318000,0.0324,0.013523,0.002678,0.000431,0.001058
11319000,0.0324,0.013523,0.002678,0.000431,0.001175
11320000,0.0324,0.013523,0.002678,0.000431,0.001410
11321000,0.0324,0.013523,0.002678,0.000431,0.001175
11322000,0.0324,0.013523,0.002678,0.000431,0.000470
11323000,0.0324,0.013523,0.002678,0.000431,0.001293
11324000,0.0324,0.013523,0.002678,0.000431,0.001058
11325000,0.0324,0.013523,0.002678,0.000431,0.000940
11326000,0.0324,0.013523,0.002678,0.000431,0.001175
11327000,0.0324,0.013523,0.002678,0.000431,0.000705
11328000,0.0324,0.013523,0.002678,0.000431,0.001175
11329000,0.0324,0.013523,0.002678,0.000431,0.001175
11330000,0.0324,0.013523,0.002678,0.000431,0.001175
11331000,0.0324,0.013523,0.002678,0.000431,0.000940
11332000,0.0324,0.013523,0.002678,0.000431,0.000940
11333000,0.0324,0.013523,0.002678,0.000431,0.001410
11334000,0.0324,0.013523,0.002678,0.000431,0.000470
11335000,0.0324,0.013523,0.002678,0.000431,0.001175
11336000,0.0324,0.013523,0.002678,0.000431,0.000705
11337000,0.0324,0.013523,0.002678,0.000431,0.000705
11338000,0.0324,0.013523,0.002678,0.000431,0.001175
11339000,0.0324,0.013523,0.002678,0.000431,0.001175
11340000,0.0324,0.013523,0.002678,0.000431,0.001175
11341000,0.0324,0.013523,0.002678,0.000431,0.001058
11342000,0.0324,0.013523,0.002678,0.000431,0.000823
11343000,0.0324,0.013523,0.002678,0.000431,0.001175
11344000,0.0324,0.013523,0.002678,0.000431,0.001293
11345000,0.0324,0.013523,0.002678,0.000431,0.001058
11346000,0.0324,0.013523,0.002678,0.000431,0.000823
11347000,0.0324,0.013523,0.002678,0.000431,0.000823
11348000,0.0324,0.013523,0.002678,0.000431,0.000940
11349000,0.0324,0.013523,0.002678,0.000431,0.000705
11350000,0.0324,0.013523,0.002678,0.000431,0.001175
11351000,0.0324,0.013523,0.002678,0.000431,0.000588
11352000,0.0324,0.013523,0.002678,0.000431,0.000588
11353000,0.0324,0.013523,0.002678,0.000431,0.001175
11354000,0.0324,0.013523,0.002678,0.000431,0.000705
11355000,0.0324,0.013523,0.002678,0.000431,0.001175
11356000,0.0324,0.013523,0.002678,0.000431,0.000705
11357000,0.0324,0.013523,0.002678,0.000431,0.001175
11358000,0.0324,0.013523,0.002678,0.000431,0.001175
11359000,0.0324,0.013523,0.002678,0.000431,0.000470
11360000,0.0324,0.013523,0.002678,0.000431,0.001410
11361000,0.0324,0.013523,0.002678,0.000431,0.000940
11362000,0.0324,0.013523,0.002678,0.000431,0.000705
11363000,0.0324,0.013523,0.002678,0.000431,0.001058
11364000,0.0324,0.013523,0.002678,0.000431,0.000823
11365000,0.0324,0.013523,0.002678,0.000431,0.001293
11366000,0.0324,0.013523,0.002678,0.000431,0.000588
11367000,0.0324,0.013523,0.002678,0.000431,0.000470
11368000,0.0324,0.013523,0.002678,0.000431,0.001293
11369000,0.0324,0.013523,0.002678,0.000431,0.001058
11370000,0.0324,0.013523,0.002678,0.000431,0.000705
11371000,0.0324,0.013523,0.002678,0.000431,0.000823
11372000,0.0324,0.013523,0.002678,0.000431,0.001058
11373000,0.0324,0.013523,0.002678,0.000431,0.001175
11374000,0.0324,0.013523,0.002678,0.000431,0.001175
11375000,0.0324,0.013523,0.002678,0.000431,0.000940
11376000,0.0324,0.013523,0.002678,0.000431,0.001058
11377000,0.0324,0.013523,0.002678,0.000431,0.000588
11378000,0.0324,0.013523,0.002678,0.000431,0.001175
11379000,0.0324,0.013523,0.002678,0.000431,0.001293
11380000,0.0324,0.013523,0.002678,0.000431,0.001058
11381000,0.0324,0.013523,0.002678,0.000431,0.000940
11382000,0.0324,0.013523,0.002678,0.000431,0.001175
11383000,0.0324,0.013523,0.002678,0.000431,0.001175
11384000,0.0324,0.013523,0.002678,0.000431,0.000588
11385000,0.0324,0.013523,0.002678,0.000431,0.000588
11386000,0.0324,0.013523,0.002678,0.000431,0.001175
11387000,0.0324,0.013523,0.002678,0.000431,0.000588
11388000,0.0324,0.013523,0.002678,0.000431,0.001058
11389000,0.0324,0.013523,0.002678,0.000431,0.000705
11390000,0.0324,0.013523,0.002678,0.000431,0.000588
11391000,0.0324,0.013523,0.002678,0.000431,0.001058
11392000,0.0324,0.013523,0.002678,0.000431,0.000940
11393000,0.0324,0.013523,0.002678,0.000431,0.001175
11394000,0.0324,0.013523,0.002678,0.000431,0.000470
11395000,0.0324,0.013523,0.002678,0.000431,0.001293
11396000,0.0324,0.013523,0.002678,0.000431,0.000588
11397000,0.0324,0.013523,0.002678,0.000431,0.001175
11398000,0.0324,0.013523,0.002678,0.000431,0.000588
11399000,0.0324,0.013523,0.002678,0.000431,0.001058
11400000,0.0324,0.013523,0.002678,0.000431,0.000940
11401000,0.0324,0.013523,0.002678,0.000431,0.001175
11402000,0.0324,0.013523,0.002678,0.000431,0.001175
11403000,0.0324,0.013523,0.002678,0.000431,0.000705
11404000,0.0324,0.013523,0.002678,0.000431,0.001175
11405000,0.0324,0.013523,0.002678,0.000431,0.000705
11406000,0.0324,0.013523,0.002678,0.000431,0.001058
11407000,0.0324,0.013523,0.002678,0.000431,0.000823
11408000,0.0324,0.013523,0.002678,0.000431,0.000940
11409000,0.0324,0.013523,0.002678,0.000431,0.000705
11410000,0.0324,0.013523,0.002678,0.000431,0.001175
11411000,0.0324,0.013523,0.002678,0.000431,0.001058
11412000,0.0324,0.013523,0.002678,0.000431,0.001058
11413000,0.0324,0.013523,0.002678,0.000431,0.000940
11414000,0.0324,0.013523,0.002678,0.000431,0.001410
11415000,0.0324,0.013523,0.002678,0.000431,0.000940
11416000,0.0324,0.013523,0.002678,0.000431,0.000823
11417000,0.0324,0.013523,0.002678,0.000431,0.001058
11418000,0.0324,0.013523,0.002678,0.000431,0.000940
11419000,0.0324,0.013523,0.002678,0.000431,0.001175
11420000,0.0324,0.013523,0.002678,0.000431,0.001175
11421000,0.0324,0.013523,0.002678,0.000431,0.000823
11422000,0.0324,0.013523,0.002678,0.000431,0.001058
11423000,0.0324,0.013523,0.002678,0.000431,0.000705
11424000,0.0324,0.013523,0.002678,0.000431,0.001175
11425000,0.0324,0.013523,0.002678,0.000431,0.001175
11426000,0.0324,0.013523,0.002678,0.000431,0.000470
11427000,0.0324,0.013523,0.002678,0.000431,0.001293
11428000,0.0324,0.013523,0.002678,0.000431,0.000588
11429000,0.0324,0.013523,0.002678,0.000431,0.001175
11430000,0.0324,0.013523,0.002678,0.000431,0.000940
11431000,0.0324,0.013523,0.002678,0.000431,0.000940
11432000,0.0324,0.013523,0.002678,0.000431,0.001410
11433000,0.0324,0.013523,0.002678,0.000431,0.000940
11434000,0.0324,0.013523,0.002678,0.000431,0.001410
11435000,0.0324,0.013523,0.002678,0.000431,0.001175
11436000,0.0324,0.013523,0.002678,0.000431,0.000705
11437000,0.0324,0.013523,0.002678,0.000431,0.000823
11438000,0.0324,0.013523,0.002678,0.000431,0.001058
11439000,0.0324,0.013523,0.002678,0.000431,0.001175
11440000,0.0324,0.013523,0.002678,0.000431,0.001175
11441000,0.0324,0.013523,0.002678,0.000431,0.000940
11442000,0.0324,0.013523,0.002678,0.000431,0.000940
11443000,0.0324,0.013523,0.002678,0.000431,0.001410
11444000,0.0324,0.013523,0.002678,0.000431,0.000470
11445000,0.0324,0.013523,0.002678,0.000431,0.001293
11446000,0.0324,0.013523,0.002678,0.000431,0.001058
11447000,0.0324,0.013523,0.002678,0.000431,0.000940
11448000,0.0324,0.013523,0.002678,0.000431,0.001058
11449000,0.0324,0.013523,0.002678,0.000431,0.000588
11450000,0.0324,0.013523,0.002678,0.000431,0.001293
11451000,0.0324,0.013523,0.002678,0.000431,0.001293
11452000,0.0324,0.013523,0.002678,0.000431,0.001175
11453000,0.0324,0.013523,0.002678,0.000431,0.000588
11454000,0.0324,0.013523,0.002678,0.000431,0.001058
11455000,0.0324,0.013523,0.002678,0.000431,0.000940
11456000,0.0324,0.013523,0.002678,0.000431,0.001058
11457000,0.0324,0.013523,0.002678,0.000431,0.000588
11458000,0.0324,0.013523,0.002678,0.000431,0.000823
11459000,0.0324,0.013523,0.002678,0.000431,0.001058
11460000,0.0324,0.013523,0.002678,0.000431,0.001175
11461000,0.0324,0.013523,0.002678,0.000431,0.000705
11462000,0.0324,0.013523,0.002678,0.000431,0.001175
11463000,0.0324,0.013523,0.002678,0.000431,0.001293
11464000,0.0324,0.013523,0.002678,0.000431,0.000588
11465000,0.0324,0.013523,0.002678,0.000431,0.001175
11466000,0.0324,0.013523,0.002678,0.000431,0.001058
11467000,0.0324,0.013523,0.002678,0.000431,0.000823
11468000,0.0324,0.013523,0.002678,0.000431,0.000823
11469000,0.0324,0.013523,0.002678,0.000431,0.001293
11470000,0.0324,0.013523,0.002678,0.000431,0.001175
11471000,0.0324,0.013523,0.002678,0.000431,0.001175
11472000,0.0324,0.013523,0.002678,0.000431,0.001175
11473000,0.0324,0.013523,0.002678,0.000431,0.001293
11474000,0.0324,0.013523,0.002678,0.000431,0.001058
11475000,0.0324,0.013523,0.002678,0.000431,0.000940
11476000,0.0324,0.013523,0.002678,0.000431,0.001175
11477000,0.0324,0.013523,0.002678,0.000431,0.001175
11478000,0.0324,0.013523,0.002678,0.000431,0.001058
11479000,0.0324,0.013523,0.002678,0.000431,0.001058
11480000,0.0324,0.013523,0.002678,0.000431,0.000940
11481000,0.0324,0.013523,0.002678,0.000431,0.001410
11482000,0.0324,0.013523,0.002678,0.000431,0.000940
11483000,0.0324,0.013523,0.002678,0.000431,0.001058
11484000,0.0324,0.013523,0.002678,0.000431,0.001058
11485000,0.0324,0.013523,0.002678,0.000431,0.001175
11486000,0.0324,0.013523,0.002678,0.000431,0.001410
11487000,0.0324,0.013523,0.002678,0.000431,0.000705
11488000,0.0324,0.013523,0.002678,0.000431,0.001175
11489000,0.0324,0.013523,0.002678,0.000431,0.001175
11490000,0.0324,0.013523,0.002678,0.000431,0.001175
11491000,0.0324,0.013523,0.002678,0.000431,0.001175
11492000,0.0324,0.013523,0.002678,0.000431,0.001175
11493000,0.0324,0.013523,0.002678,0.000431,0.001058
11494000,0.0324,0.013523,0.002678,0.000431,0.001058
11495000,0.0324,0.013523,0.002678,0.000431,0.001175
11496000,0.0324,0.013523,0.002678,0.000431,0.000823
11497000,0.0324,0.013523,0.002678,0.000431,0.001293
11498000,0.0324,0.013523,0.002678,0.000431,0.001175
11499000,0.0324,0.013523,0.002678,0.000431,0.001175
11500000,0.0324,0.013523,0.002678,0.000431,0.001293
11501000,0.0324,0.013523,0.002678,0.000431,0.000588
11502000,0.0324,0.013523,0.002678,0.000431,0.001175
11503000,0.0324,0.013523,0.002678,0.000431,0.001410
11504000,0.0324,0.013523,0.002678,0.000431,0.000940
11505000,0.0324,0.013523,0.002678,0.000431,0.001293
11506000,0.0324,0.013523,0.002678,0.000431,0.001058
11507000,0.0324,0.013523,0.002678,0.000431,0.000940
11508000,0.0324,0.013523,0.002678,0.000431,0.001410
11509000,0.0324,0.013523,0.002678,0.000431,0.001175
11510000,0.0324,0.013523,0.002678,0.000431,0.001410
11511000,0.0324,0.013523,0.002678,0.000431,0.001175
11512000,0.0324,0.013523,0.002678,0.000431,0.001293
11513000,0.0324,0.013523,0.002678,0.000431,0.001058
11514000,0.0324,0.013523,0.002678,0.000431,0.000940
11515000,0.0324,0.013523,0.002678,0.000431,0.001175
11516000,0.0324,0.013523,0.002678,0.000431,0.001175
11517000,0.0324,0.013523,0.002678,0.000431,0.001293
11518000,0.0324,0.013523,0.002678,0.000431,0.001293
11519000,0.0324,0.013523,0.002678,0.000431,0.001175
11520000,0.0324,0.013523,0.002678,0.000431,0.001410
11521000,0.0324,0.013523,0.002678,0.000431,0.001175
11522000,0.0324,0.013523,0.002678,0.000431,0.000823
11523000,0.0324,0.013523,0.002678,0.000431,0.001175
11524000,0.0324,0.013523,0.002678,0.000431,0.001058
11525000,0.0324,0.013523,0.002678,0.000431,0.001293
11526000,0.0324,0.013523,0.002678,0.000431,0.001293
11527000,0.0324,0.013523,0.002678,0.000431,0.001293
11528000,0.0324,0.013523,0.002678,0.000431,0.000588
11529000,0.0324,0.013523,0.002678,0.000431,0.001175
11530000,0.0324,0.013523,0.002678,0.000431,0.001410
11531000,0.0324,0.013523,0.002678,0.000431,0.000940
11532000,0.0324,0.013523,0.002678,0.000431,0.001293
11533000,0.0324,0.013523,0.002678,0.000431,0.001058
11534000,0.0324,0.013523,0.002678,0.000431,0.000940
11535000,0.0324,0.013523,0.002678,0.000431,0.001410
11536000,0.0324,0.013523,0.002678,0.000431,0.001175
11537000,0.0324,0.013523,0.002678,0.000431,0.000823
11538000,0.0324,0.013523,0.002678,0.000431,0.001175
11539000,0.0324,0.013523,0.002678,0.000431,0.001293
11540000,0.0324,0.013523,0.002678,0.000431,0.001175
11541000,0.0324,0.013523,0.002678,0.000431,0.001175
11542000,0.0324,0.013523,0.002678,0.000431,0.000823
11543000,0.0324,0.013523,0.002678,0.000431,0.001410
11544000,0.0324,0.013523,0.002678,0.000431,0.001058
11545000,0.0324,0.013523,0.002678,0.000431,0.001293
11546000,0.0324,0.013523,0.002678,0.000431,0.001293
11547000,0.0324,0.013523,0.002678,0.000431,0.001058
11548000,0.0324,0.013523,0.002678,0.000431,0.001293
11549000,0.0324,0.013523,0.002678,0.000431,0.000588
11550000,0.0324,0.013523,0.002678,0.000431,0.001293
11551000,0.0324,0.013523,0.002678,0.000431,0.001175
11552000,0.0324,0.013523,0.002678,0.000431,0.001293
11553000,0.0324,0.013523,0.002678,0.000431,0.001058
11554000,0.0324,0.013523,0.002678,0.000431,0.001410
11555000,0.0324,0.013523,0.002678,0.000431,0.001175
11556000,0.0324,0.013523,0.002678,0.000431,0.001175
11557000,0.0324,0.013523,0.002678,0.000431,0.001058
11558000,0.0324,0.013523,0.002678,0.000431,0.001058
11559000,0.0324,0.013523,0.002678,0.000431,0.001293
11560000,0.0324,0.013523,0.002678,0.000431,0.001058
11561000,0.0324,0.013523,0.002678,0.000431,0.000940
11562000,0.0324,0.013523,0.002678,0.000431,0.001175
11563000,0.0324,0.013523,0.002678,0.000431,0.001175
11564000,0.0324,0.013523,0.002678,0.000431,0.001175
11565000,0.0324,0.013523,0.002678,0.000431,0.001410
11566000,0.0324,0.013523,0.002678,0.000431,0.001058
11567000,0.0324,0.013523,0.002678,0.000431,0.001410
11568000,0.0324,0.013523,0.002678,0.000431,0.000823
11569000,0.0324,0.013523,0.002678,0.000431,0.001175
11570000,0.0324,0.013523,0.002678,0.000431,0.001175
11571000,0.0324,0.013523,0.002678,0.000431,0.001175
11572000,0.0324,0.013523,0.002678,0.000431,0.001293
11573000,0.0324,0.013523,0.002678,0.000431,0.001293
11574000,0.0324,0.013523,0.002678,0.000431,0.001175
11575000,0.0324,0.013523,0.002678,0.000431,0.001410
11576000,0.0324,0.013523,0.002678,0.000431,0.001175
11577000,0.0324,0.013523,0.002678,0.000431,0.001175
11578000,0.0324,0.013523,0.002678,0.000431,0.000940
11579000,0.0324,0.013523,0.002678,0.000431,0.001058
11580000,0.0324,0.013523,0.002678,0.000431,0.001293
11581000,0.0324,0.013523,0.002678,0.000431,0.001175
11582000,0.0324,0.013523,0.002678,0.000431,0.001410
11583000,0.0324,0.013523,0.002678,0.000431,0.001175
11584000,0.0324,0.013523,0.002678,0.000431,0.001410
11585000,0.0324,0.013523,0.002678,0.000431,0.000940
11586000,0.0324,0.013523,0.002678,0.000431,0.001293
11587000,0.0324,0.013523,0.002678,0.000431,0.001175
11588000,0.0324,0.013523,0.002678,0.000431,0.001528
11589000,0.0324,0.013523,0.002678,0.000431,0.001175
11590000,0.0324,0.013523,0.002678,0.000431,0.001175
11591000,0.0324,0.013523,0.002678,0.000431,0.001528
11592000,0.0324,0.013523,0.002678,0.000431,0.001058
11593000,0.0324,0.013523,0.002678,0.000431,0.000940
11594000,0.0324,0.013523,0.002678,0.000431,0.001293
11595000,0.0324,0.013523,0.002678,0.000431,0.001528
11596000,0.0324,0.013523,0.002678,0.000431,0.000940
11597000,0.0324,0.013523,0.002678,0.000431,0.001175
11598000,0.0324,0.013523,0.002678,0.000431,0.001293
11599000,0.0324,0.013523,0.002678,0.000431,0.001058
11600000,0.0324,0.013523,0.002678,0.000431,0.000705
11601000,0.0324,0.013523,0.002678,0.000431,0.000705
11602000,0.0324,0.013523,0.002678,0.000431,0.001410
11603000,0.0324,0.013523,0.002678,0.000431,0.001175
11604000,0.0324,0.013523,0.002678,0.000431,0.001175
11605000,0.0324,0.013523,0.002678,0.000431,0.001293
11606000,0.0324,0.013523,0.002678,0.000431,0.001293
11607000,0.0324,0.013523,0.002678,0.000431,0.000470
11608000,0.0324,0.013523,0.002678,0.000431,0.001293
11609000,0.0324,0.013523,0.002678,0.000431,0.000588
11610000,0.0324,0.013523,0.002678,0.000431,0.000705
11611000,0.0324,0.013523,0.002678,0.000431,0.001175
11612000,0.0324,0.013523,0.002678,0.000431,0.001293
11613000,0.0324,0.013523,0.002678,0.000431,0.000588
11614000,0.0324,0.013523,0.002678,0.000431,0.001293
11615000,0.0324,0.013523,0.002678,0.000431,0.001293
11616000,0.0324,0.013523,0.002678,0.000431,0.001175
11617000,0.0324,0.013523,0.002678,0.000431,0.000823
11618000,0.0324,0.013523,0.002678,0.000431,0.001058
11619000,0.0324,0.013523,0.002678,0.000431,0.001293
11620000,0.0324,0.013523,0.002678,0.000431,0.000588
11621000,0.0324,0.013523,0.002678,0.000431,0.001175
11622000,0.0324,0.013523,0.002678,0.000431,0.001175
11623000,0.0324,0.013523,0.002678,0.000431,0.000940
11624000,0.0324,0.013523,0.002678,0.000431,0.001175
11625000,0.0324,0.013523,0.002678,0.000431,0.001175
11626000,0.0324,0.013523,0.002678,0.000431,0.001175
11627000,0.0324,0.013523,0.002678,0.000431,0.000823
11628000,0.0324,0.013523,0.002678,0.000431,0.001058
11629000,0.0324,0.013523,0.002678,0.000431,0.001175
11630000,0.0324,0.013523,0.002678,0.000431,0.001175
11631000,0.0324,0.013523,0.002678,0.000431,0.000705
11632000,0.0324,0.013523,0.002678,0.000431,0.000705
11633000,0.0324,0.013523,0.002678,0.000431,0.001175
11634000,0.0324,0.013523,0.002678,0.000431,0.001175
11635000,0.0324,0.013523,0.002678,0.000431,0.000470
11636000,0.0324,0.013523,0.002678,0.000431,0.001410
11637000,0.0324,0.013523,0.002678,0.000431,0.001175
11638000,0.0324,0.013523,0.002678,0.000431,0.000705
11639000,0.0324,0.013523,0.002678,0.000431,0.001175
11640000,0.0324,0.013523,0.002678,0.000431,0.000470
11641000,0.0324,0.013523,0.002678,0.000431,0.001293
11642000,0.0324,0.013523,0.002678,0.000431,0.000588
11643000,0.0324,0.013523,0.002678,0.000431,0.001175
11644000,0.0324,0.013523,0.002678,0.000431,0.001058
11645000,0.0324,0.013523,0.002678,0.000431,0.000940
11646000,0.0324,0.013523,0.002678,0.000431,0.001058
11647000,0.0324,0.013523,0.002678,0.000431,0.001410
11648000,0.0324,0.013523,0.002678,0.000431,0.000705
11649000,0.0324,0.013523,0.002678,0.000431,0.001175
11650000,0.0324,0.013523,0.002678,0.000431,0.001175
11651000,0.0324,0.013523,0.002678,0.000431,0.001175
11652000,0.0324,0.013523,0.002678,0.000431,0.000705
11653000,0.0324,0.013523,0.002678,0.000431,0.001175
11654000,0.0324,0.013523,0.002678,0.000431,0.001175
11655000,0.0324,0.013523,0.002678,0.000431,0.000470
11656000,0.0324,0.013523,0.002678,0.000431,0.001410
11657000,0.0324,0.013523,0.002678,0.000431,0.000940
11658000,0.0324,0.013523,0.002678,0.000431,0.000940
11659000,0.0324,0.013523,0.002678,0.000431,0.001175
11660000,0.0324,0.013523,0.002678,0.000431,0.001175
11661000,0.0324,0.013523,0.002678,0.000431,0.001410
11662000,0.0324,0.013523,0.002678,0.000431,0.000470
11663000,0.0324,0.013523,0.002678,0.000431,0.001175
11664000,0.0324,0.013523,0.002678,0.000431,0.001175
11665000,0.0324,0.013523,0.002678,0.000431,0.000940
11666000,0.0324,0.013523,0.002678,0.000431,0.000940
11667000,0.0324,0.013523,0.002678,0.000431,0.001410
11668000,0.0324,0.013523,0.002678,0.000431,0.000705
11669000,0.0324,0.013523,0.002678,0.000431,0.001175
11670000,0.0324,0.013523,0.002678,0.000431,0.001175
11671000,0.0324,0.013523,0.002678,0.000431,0.000470
11672000,0.0324,0.013523,0.002678,0.000431,0.000705
11673000,0.0324,0.013523,0.002678,0.000431,0.001175
11674000,0.0324,0.013523,0.002678,0.000431,0.001175
11675000,0.0324,0.013523,0.002678,0.000431,0.001175
11676000,0.0324,0.013523,0.002678,0.000431,0.000940
11677000,0.0324,0.013523,0.002678,0.000431,0.001175
11678000,0.0324,0.013523,0.002678,0.000431,0.001175
11679000,0.0324,0.013523,0.002678,0.000431,0.000588
11680000,0.0324,0.013523,0.002678,0.000431,0.001058
11681000,0.0324,0.013523,0.002678,0.000431,0.000705
11682000,0.0324,0.013523,0.002678,0.000431,0.000705
11683000,0.0324,0.013523,0.002678,0.000431,0.001175
11684000,0.0324,0.013523,0.002678,0.000431,0.000705
11685000,0.0324,0.013523,0.002678,0.000431,0.001175
11686000,0.0324,0.013523,0.002678,0.000431,0.000823
11687000,0.0324,0.013523,0.002678,0.000431,0.001058
11688000,0.0324,0.013523,0.002678,0.000431,0.001175
11689000,0.0324,0.013523,0.002678,0.000431,0.001293
11690000,0.0324,0.013523,0.002678,0.000431,0.001293
11691000,0.0324,0.013523,0.002678,0.000431,0.001175
11692000,0.0324,0.013523,0.002678,0.000431,0.000823
11693000,0.0324,0.013523,0.002678,0.000431,0.001058
11694000,0.0324,0.013523,0.002678,0.000431,0.001175
11695000,0.0324,0.013523,0.002678,0.000431,0.001175
11696000,0.0324,0.013523,0.002678,0.000431,0.000940
11697000,0.0324,0.013523,0.002678,0.000431,0.000940
11698000,0.0324,0.013523,0.002678,0.000431,0.001410
11699000,0.0324,0.013523,0.002678,0.000431,0.000470
11700000,0.0324,0.013523,0.002678,0.000431,0.000588
11701000,0.0324,0.013523,0.002678,0.000431,0.001293
11702000,0.0324,0.013523,0.002678,0.000431,0.001175
11703000,0.0324,0.013523,0.002678,0.000431,0.000705
11704000,0.0324,0.013523,0.002678,0.000431,0.001175
11705000,0.0324,0.013523,0.002678,0.000431,0.001175
11706000,0.0324,0.013523,0.002678,0.000431,0.001175
11707000,0.0324,0.013523,0.002678,0.000431,0.000940
11708000,0.0324,0.013523,0.002678,0.000431,0.001058
11709000,0.0324,0.013523,0.002678,0.000431,0.001293
11710000,0.0324,0.013523,0.002678,0.000431,0.001175
11711000,0.0324,0.013523,0.002678,0.000431,0.000823
11712000,0.0324,0.013523,0.002678,0.000431,0.001058
11713000,0.0324,0.013523,0.002678,0.000431,0.001175
11714000,0.0324,0.013523,0.002678,0.000431,0.001410
11715000,0.0324,0.013523,0.002678,0.000431,0.001175
11716000,0.0324,0.013523,0.002678,0.000431,0.000588
11717000,0.0324,0.013523,0.002678,0.000431,0.000588
11718000,0.0324,0.013523,0.002678,0.000431,0.000588
11719000,0.0324,0.013523,0.002678,0.000431,0.000705
11720000,0.0324,0.013523,0.002678,0.000431,0.001058
11721000,0.0324,0.013523,0.002678,0.000431,0.001293
11722000,0.0324,0.013523,0.002678,0.000431,0.001058
11723000,0.0324,0.013523,0.002678,0.000431,0.000940
11724000,0.0324,0.013523,0.002678,0.000431,0.001175
11725000,0.0324,0.013523,0.002678,0.000431,0.001175
11726000,0.0324,0.013523,0.002678,0.000431,0.000823
11727000,0.0324,0.013523,0.002678,0.000431,0.001058
11728000,0.0324,0.013523,0.002678,0.000431,0.001175
11729000,0.0324,0.013523,0.002678,0.000431,0.000705
11730000,0.0324,0.013523,0.002678,0.000431,0.001175
11731000,0.0324,0.013523,0.002678,0.000431,0.001175
11732000,0.0324,0.013523,0.002678,0.000431,0.001175
11733000,0.0324,0.013523,0.002678,0.000431,0.000705
11734000,0.0324,0.013523,0.002678,0.000431,0.000705
11735000,0.0324,0.013523,0.002678,0.000431,0.001175
11736000,0.0324,0.013523,0.002678,0.000431,0.001293
11737000,0.0324,0.013523,0.002678,0.000431,0.001058
11738000,0.0324,0.013523,0.002678,0.000431,0.000940
11739000,0.0324,0.013523,0.002678,0.000431,0.001058
11740000,0.0324,0.013523,0.002678,0.000431,0.001293
11741000,0.0324,0.013523,0.002678,0.000431,0.001175
11742000,0.0324,0.013523,0.002678,0.000431,0.000823
11743000,0.0324,0.013523,0.002678,0.000431,0.001175
11744000,0.0324,0.013523,0.002678,0.000431,0.001175
11745000,0.0324,0.013523,0.002678,0.000431,0.001058
11746000,0.0324,0.013523,0.002678,0.000431,0.000940
11747000,0.0324,0.013523,0.002678,0.000431,0.001058
11748000,0.0324,0.013523,0.002678,0.000431,0.000823
11749000,0.0324,0.013523,0.002678,0.000431,0.001058
11750000,0.0324,0.013523,0.002678,0.000431,0.001293
11751000,0.0324,0.013523,0.002678,0.000431,0.001175
11752000,0.0324,0.013523,0.002678,0.000431,0.000588
11753000,0.0324,0.013523,0.002678,0.000431,0.001058
11754000,0.0324,0.013523,0.002678,0.000431,0.000823
11755000,0.0324,0.013523,0.002678,0.000431,0.000823
11756000,0.0324,0.013523,0.002678,0.000431,0.000940
11757000,0.0324,0.013523,0.002678,0.000431,0.001410
11758000,0.0324,0.013523,0.002678,0.000431,0.001175
11759000,0.0324,0.013523,0.002678,0.000431,0.000588
11760000,0.0324,0.013523,0.002678,0.000431,0.001058
11761000,0.0324,0.013523,0.002678,0.000431,0.000940
11762000,0.0324,0.013523,0.002678,0.000431,0.001058
11763000,0.0324,0.013523,0.002678,0.000431,0.000588
11764000,0.0324,0.013523,0.002678,0.000431,0.001410
11765000,0.0324,0.013523,0.002678,0.000431,0.001175
11766000,0.0324,0.013523,0.002678,0.000431,0.000823
11767000,0.0324,0.013523,0.002678,0.000431,0.001058
11768000,0.0324,0.013523,0.002678,0.000431,0.001175
11769000,0.0324,0.013523,0.002678,0.000431,0.001293
11770000,0.0324,0.013523,0.002678,0.000431,0.001058
11771000,0.0324,0.013523,0.002678,0.000431,0.000705
11772000,0.0324,0.013523,0.002678,0.000431,0.000705
11773000,0.0324,0.013523,0.002678,0.000431,0.000705
11774000,0.0324,0.013523,0.002678,0.000431,0.001058
11775000,0.0324,0.013523,0.002678,0.000431,0.000823
11776000,0.0324,0.013523,0.002678,0.000431,0.000940
11777000,0.0324,0.013523,0.002678,0.000431,0.001410
11778000,0.0324,0.013523,0.002678,0.000431,0.000940
11779000,0.0324,0.013523,0.002678,0.000431,0.000940
11780000,0.0324,0.013523,0.002678,0.000431,0.001175
11781000,0.0324,0.013523,0.002678,0.000431,0.000705
11782000,0.0324,0.013523,0.002678,0.000431,0.001175
11783000,0.0324,0.013523,0.002678,0.000431,0.000470
11784000,0.0324,0.013523,0.002678,0.000431,0.001293
11785000,0.0324,0.013523,0.002678,0.000431,0.001058
11786000,0.0324,0.013523,0.002678,0.000431,0.000705
11787000,0.0324,0.013523,0.002678,0.000431,0.001058
11788000,0.0324,0.013523,0.002678,0.000431,0.001058
11789000,0.0324,0.013523,0.002678,0.000431,0.000940
11790000,0.0324,0.013523,0.002678,0.000431,0.001293
11791000,0.0324,0.013523,0.002678,0.000431,0.001058
11792000,0.0324,0.013523,0.002678,0.000431,0.000940
11793000,0.0324,0.013523,0.002678,0.000431,0.001175
11794000,0.0324,0.013523,0.002678,0.000431,0.000588
11795000,0.0324,0.013523,0.002678,0.000431,0.001293
11796000,0.0324,0.013523,0.002678,0.000431,0.001175
11797000,0.0324,0.013523,0.002678,0.000431,0.000705
11798000,0.0324,0.013523,0.002678,0.000431,0.001175
11799000,0.0324,0.013523,0.002678,0.000431,0.001175
11800000,0.0324,0.013523,0.002678,0.000431,0.001175
11801000,0.0324,0.013523,0.002678,0.000431,0.001175
11802000,0.0324,0.013523,0.002678,0.000431,0.000705
11803000,0.0324,0.013523,0.002678,0.000431,0.001410
11804000,0.0324,0.013523,0.002678,0.000431,0.001175
11805000,0.0324,0.013523,0.002678,0.000431,0.000823
11806000,0.0324,0.013523,0.002678,0.000431,0.001058
11807000,0.0324,0.013523,0.002678,0.000431,0.001175
11808000,0.0324,0.013523,0.002678,0.000431,0.001293
11809000,0.0324,0.013523,0.002678,0.000431,0.000588
11810000,0.0324,0.013523,0.002678,0.000431,0.001175
11811000,0.0324,0.013523,0.002678,0.000431,0.001058
11812000,0.0324,0.013523,0.002678,0.000431,0.000823
11813000,0.0324,0.013523,0.002678,0.000431,0.000705
11814000,0.0324,0.013523,0.002678,0.000431,0.000940
11815000,0.0324,0.013523,0.002678,0.000431,0.000823
11816000,0.0324,0.013523,0.002678,0.000431,0.001058
11817000,0.0324,0.013523,0.002678,0.000431,0.000940
11818000,0.0324,0.013523,0.002678,0.000431,0.001175
11819000,0.0324,0.013523,0.002678,0.000431,0.001175
11820000,0.0324,0.013523,0.002678,0.000431,0.001175
11821000,0.0324,0.013523,0.002678,0.000431,0.000705
11822000,0.0324,0.013523,0.002678,0.000431,0.001175
11823000,0.0324,0.013523,0.002678,0.000431,0.001293
11824000,0.0324,0.013523,0.002678,0.000431,0.001058
11825000,0.0324,0.013523,0.002678,0.000431,0.000940
11826000,0.0324,0.013523,0.002678,0.000431,0.001175
11827000,0.0324,0.013523,0.002678,0.000431,0.001175
11828000,0.0324,0.013523,0.002678,0.000431,0.001175
11829000,0.0324,0.013523,0.002678,0.000431,0.000940
11830000,0.0324,0.013523,0.002678,0.000431,0.000940
11831000,0.0324,0.013523,0.002678,0.000431,0.001175
11832000,0.0324,0.013523,0.002678,0.000431,0.001175
11833000,0.0324,0.013523,0.002678,0.000431,0.000940
11834000,0.0324,0.013523,0.002678,0.000431,0.001175
11835000,0.0324,0.013523,0.002678,0.000431,0.001175
11836000,0.0324,0.013523,0.002678,0.000431,0.001175
11837000,0.0324,0.013523,0.002678,0.000431,0.001058
11838000,0.0324,0.013523,0.002678,0.000431,0.000940
11839000,0.0324,0.013523,0.002678,0.000431,0.001058
11840000,0.0324,0.013523,0.002678,0.000431,0.001293
11841000,0.0324,0.013523,0.002678,0.000431,0.001058
11842000,0.0324,0.013523,0.002678,0.000431,0.000940
11843000,0.0324,0.013523,0.002678,0.000431,0.001175
11844000,0.0324,0.013523,0.002678,0.000431,0.001175
11845000,0.0324,0.013523,0.002678,0.000431,0.001058
11846000,0.0324,0.013523,0.002678,0.000431,0.000940
11847000,0.0324,0.013523,0.002678,0.000431,0.001058
11848000,0.0324,0.013523,0.002678,0.000431,0.001293
11849000,0.0324,0.013523,0.002678,0.000431,0.000588
11850000,0.0324,0.013523,0.002678,0.000431,0.001175
11851000,0.0324,0.013523,0.002678,0.000431,0.001058
11852000,0.0324,0.013523,0.002678,0.000431,0.000823
11853000,0.0324,0.013523,0.002678,0.000431,0.001293
11854000,0.0324,0.013523,0.002678,0.000431,0.001058
11855000,0.0324,0.013523,0.002678,0.000431,0.000705
11856000,0.0324,0.013523,0.002678,0.000431,0.000705
11857000,0.0324,0.013523,0.002678,0.000431,0.000940
11858000,0.0324,0.013523,0.002678,0.000431,0.000823
11859000,0.0324,0.013523,0.002678,0.000431,0.000588
11860000,0.0324,0.013523,0.002678,0.000431,0.000470
11861000,0.0324,0.013523,0.002678,0.000431,0.001175
11862000,0.0324,0.013523,0.002678,0.000431,0.000940
11863000,0.0324,0.013523,0.002678,0.000431,0.001058
11864000,0.0324,0.013523,0.002678,0.000431,0.001293
11865000,0.0324,0.013523,0.002678,0.000431,0.000470
11866000,0.0324,0.013523,0.002678,0.000431,0.001293
11867000,0.0324,0.013523,0.002678,0.000431,0.001058
11868000,0.0324,0.013523,0.002678,0.000431,0.000940
11869000,0.0324,0.013523,0.002678,0.000431,0.000940
11870000,0.0324,0.013523,0.002678,0.000431,0.000705
11871000,0.0324,0.013523,0.002678,0.000431,0.001175
11872000,0.0324,0.013523,0.002678,0.000431,0.001058
11873000,0.0324,0.013523,0.002678,0.000431,0.000940
11874000,0.0324,0.013523,0.002678,0.000431,0.001058
11875000,0.0324,0.013523,0.002678,0.000431,0.000588
11876000,0.0324,0.013523,0.002678,0.000431,0.000823
11877000,0.0324,0.013523,0.002678,0.000431,0.000940
11878000,0.0324,0.013523,0.002678,0.000431,0.001293
11879000,0.0324,0.013523,0.002678,0.000431,0.001058
11880000,0.0324,0.013523,0.002678,0.000431,0.000940
11881000,0.0324,0.013523,0.002678,0.000431,0.001175
11882000,0.0324,0.013523,0.002678,0.000431,0.001175
11883000,0.0324,0.013523,0.002678,0.000431,0.000823
11884000,0.0324,0.013523,0.002678,0.000431,0.001058
11885000,0.0324,0.013523,0.002678,0.000431,0.001175
11886000,0.0324,0.013523,0.002678,0.000431,0.001293
11887000,0.0324,0.013523,0.002678,0.000431,0.000588
11888000,0.0324,0.013523,0.002678,0.000431,0.001175
11889000,0.0324,0.013523,0.002678,0.000431,0.000823
11890000,0.0324,0.013523,0.002678,0.000431,0.001058
11891000,0.0324,0.013523,0.002678,0.000431,0.001293
11892000,0.0324,0.013523,0.002678,0.000431,0.001058
11893000,0.0324,0.013523,0.002678,0.000431,0.000940
11894000,0.0324,0.013523,0.002678,0.000431,0.001058
11895000,0.0324,0.013523,0.002678,0.000431,0.001058
11896000,0.0324,0.013523,0.002678,0.000431,0.000940
11897000,0.0324,0.013523,0.002678,0.000431,0.001175
11898000,0.0324,0.013523,0.002678,0.000431,0.001175
11899000,0.0324,0.013523,0.002678,0.000431,0.001175
11900000,0.0324,0.013523,0.002678,0.000431,0.000705
11901000,0.0324,0.013523,0.002678,0.000431,0.001175
11902000,0.0324,0.013523,0.002678,0.000431,0.001175
11903000,0.0324,0.013523,0.002678,0.000431,0.000705
11904000,0.0324,0.013523,0.002678,0.000431,0.000705
11905000,0.0324,0.013523,0.002678,0.000431,0.000940
11906000,0.0324,0.013523,0.002678,0.000431,0.001293
11907000,0.0324,0.013523,0.002678,0.000431,0.001058
11908000,0.0324,0.013523,0.002678,0.000431,0.000705
11909000,0.0324,0.013523,0.002678,0.000431,0.000705
11910000,0.0324,0.013523,0.002678,0.000431,0.001175
11911000,0.0324,0.013523,0.002678,0.000431,0.001293
11912000,0.0324,0.013523,0.002678,0.000431,0.000588
11913000,0.0324,0.013523,0.002678,0.000431,0.001175
11914000,0.0324,0.013523,0.002678,0.000431,0.000823
11915000,0.0324,0.013523,0.002678,0.000431,0.001058
11916000,0.0324,0.013523,0.002678,0.000431,0.001175
11917000,0.0324,0.013523,0.002678,0.000431,0.001293
11918000,0.0324,0.013523,0.002678,0.000431,0.001058
11919000,0.0324,0.013523,0.002678,0.000431,0.000705
11920000,0.0324,0.013523,0.002678,0.000431,0.001410
11921000,0.0324,0.013523,0.002678,0.000431,0.001175
11922000,0.0324,0.013523,0.002678,0.000431,0.000705
11923000,0.0324,0.013523,0.002678,0.000431,0.001175
11924000,0.0324,0.013523,0.002678,0.000431,0.001175
11925000,0.0324,0.013523,0.002678,0.000431,0.001175
11926000,0.0324,0.013523,0.002678,0.000431,0.001058
11927000,0.0324,0.013523,0.002678,0.000431,0.001058
11928000,0.0324,0.013523,0.002678,0.000431,0.000940
11929000,0.0324,0.013523,0.002678,0.000431,0.000705
11930000,0.0324,0.013523,0.002678,0.000431,0.001175
11931000,0.0324,0.013523,0.002678,0.000431,0.001058
11932000,0.0324,0.013523,0.002678,0.000431,0.001175
11933000,0.0324,0.013523,0.002678,0.000431,0.001528
11934000,0.0324,0.013523,0.002678,0.000431,0.001175
11935000,0.0324,0.013523,0.002678,0.000431,0.001175
11936000,0.0324,0.013523,0.002678,0.000431,0.001528
11937000,0.0324,0.013523,0.002678,0.000431,0.001293
11938000,0.0324,0.013523,0.002678,0.000431,0.001293
11939000,0.0324,0.013523,0.002678,0.000431,0.000588
11940000,0.0324,0.013523,0.002678,0.000431,0.001175
11941000,0.0324,0.013523,0.002678,0.000431,0.001410
11942000,0.0324,0.013523,0.002678,0.000431,0.001175
11943000,0.0324,0.013523,0.002678,0.000431,0.001410
11944000,0.0324,0.013523,0.002678,0.000431,0.000940
11945000,0.0324,0.013523,0.002678,0.000431,0.001528
11946000,0.0324,0.013523,0.002678,0.000431,0.001293
11947000,0.0324,0.013523,0.002678,0.000431,0.001175
11948000,0.0324,0.013523,0.002678,0.000431,0.001410
11949000,0.0324,0.013523,0.002678,0.000431,0.001175
11950000,0.0324,0.013523,0.002678,0.000431,0.001410
11951000,0.0324,0.013523,0.002678,0.000431,0.001175
11952000,0.0324,0.013523,0.002678,0.000431,0.001293
11953000,0.0324,0.013523,0.002678,0.000431,0.001293
11954000,0.0324,0.013523,0.002678,0.000431,0.001175
11955000,0.0324,0.013523,0.002678,0.000431,0.001410
11956000,0.0324,0.013523,0.002678,0.000431,0.001175
11957000,0.0324,0.013523,0.002678,0.000431,0.001410
11958000,0.0324,0.013523,0.002678,0.000431,0.001175
11959000,0.0324,0.013523,0.002678,0.000431,0.001410
11960000,0.0324,0.013523,0.002678,0.000431,0.001528
11961000,0.0324,0.013523,0.002678,0.000431,0.001293
11962000,0.0324,0.013523,0.002678,0.000431,0.001293
11963000,0.0324,0.013523,0.002678,0.000431,0.001293
11964000,0.0324,0.013523,0.002678,0.000431,0.000940
11965000,0.0324,0.013523,0.002678,0.000431,0.001175
11966000,0.0324,0.013523,0.002678,0.000431,0.001293
11967000,0.0324,0.013523,0.002678,0.000431,0.001293
11968000,0.0324,0.013523,0.002678,0.000431,0.001175
11969000,0.0324,0.013523,0.002678,0.000431,0.001410
11970000,0.0324,0.013523,0.002678,0.000431,0.001175
11971000,0.0324,0.013523,0.002678,0.000431,0.001410
11972000,0.0324,0.013523,0.002678,0.000431,0.001175
11973000,0.0324,0.013523,0.002678,0.000431,0.001410
11974000,0.0324,0.013523,0.002678,0.000431,0.001528
11975000,0.0324,0.013523,0.002678,0.000431,0.000823
11976000,0.0324,0.013523,0.002678,0.000431,0.001293
11977000,0.0324,0.013523,0.002678,0.000431,0.001293
11978000,0.0324,0.013523,0.002678,0.000431,0.001175
11979000,0.0324,0.013523,0.002678,0.000431,0.000705
11980000,0.0324,0.013523,0.002678,0.000431,0.000588
11981000,0.0324,0.013523,0.002678,0.000431,0.000588
11982000,0.0324,0.013523,0.002678,0.000431,0.000588
11983000,0.0324,0.013523,0.002678,0.000431,0.000588
11984000,0.0324,0.013523,0.002678,0.000431,0.000588
11985000,0.0324,0.013523,0.002678,0.000431,0.000588
11986000,0.0324,0.013523,0.002678,0.000431,0.000705
11987000,0.0324,0.013523,0.002678,0.000431,0.000588
11988000,0.0324,0.013523,0.002678,0.000431,0.000588
11989000,0.0324,0.013523,0.002678,0.000431,0.000588
11990000,0.0324,0.013523,0.002678,0.000431,0.000588
11991000,0.0324,0.013523,0.002678,0.000431,0.000705
11992000,0.0324,0.013523,0.002678,0.000431,0.000705
11993000,0.0324,0.013523,0.002678,0.000431,0.000470
11994000,0.0324,0.013523,0.002678,0.000431,0.000588
11995000,0.0324,0.013523,0.002678,0.000431,0.000705
11996000,0.0324,0.013523,0.002678,0.000431,0.000588
11997000,0.0324,0.013523,0.002678,0.000431,0.000588
11998000,0.0324,0.013523,0.002678,0.000431,0.000588
11999000,0.0324,0.013523,0.002678,0.000431,0.000588
