Cycle,Area(mm^2),PeakDynamic(W),SubthresholdLeakage(W),GateLeakage(W),RunTimeDynamic(W)
2000000,0.0324,0.013523,0.002678,0.000431,0.731143
2001000,0.0324,0.013523,0.002678,0.000431,0.728087
2002000,0.0324,0.013523,0.002678,0.000431,0.712103
2003000,0.0324,0.013523,0.002678,0.000431,0.727617
2004000,0.0324,0.013523,0.002678,0.000431,0.711633
2005000,0.0324,0.013523,0.002678,0.000431,0.719743
2006000,0.0324,0.013523,0.002678,0.000431,0.713866
2007000,0.0324,0.013523,0.002678,0.000431,0.715512
2008000,0.0324,0.013523,0.002678,0.000431,0.702113
2009000,0.0324,0.013523,0.002678,0.000431,0.688245
2010000,0.0324,0.013523,0.002678,0.000431,0.713043
2011000,0.0324,0.013523,0.002678,0.000431,0.726677
2012000,0.0324,0.013523,0.002678,0.000431,0.692711
2013000,0.0324,0.013523,0.002678,0.000431,0.685307
2014000,0.0324,0.013523,0.002678,0.000431,0.676022
2015000,0.0324,0.013523,0.002678,0.000431,0.683779
2016000,0.0324,0.013523,0.002678,0.000431,0.694357
2017000,0.0324,0.013523,0.002678,0.000431,0.692946
2018000,0.0324,0.013523,0.002678,0.000431,0.675552
2019000,0.0324,0.013523,0.002678,0.000431,0.674259
2020000,0.0324,0.013523,0.002678,0.000431,0.670381
2021000,0.0324,0.013523,0.002678,0.000431,0.675670
2022000,0.0324,0.013523,0.002678,0.000431,0.681076
2023000,0.0324,0.013523,0.002678,0.000431,0.689655
2024000,0.0324,0.013523,0.002678,0.000431,0.694239
2025000,0.0324,0.013523,0.002678,0.000431,0.688363
2026000,0.0324,0.013523,0.002678,0.000431,0.681781
2027000,0.0324,0.013523,0.002678,0.000431,0.665680
2028000,0.0324,0.013523,0.002678,0.000431,0.678373
2029000,0.0324,0.013523,0.002678,0.000431,0.678138
2030000,0.0324,0.013523,0.002678,0.000431,0.680018
2031000,0.0324,0.013523,0.002678,0.000431,0.665562
2032000,0.0324,0.013523,0.002678,0.000431,0.670851
2033000,0.0324,0.013523,0.002678,0.000431,0.667090
2034000,0.0324,0.013523,0.002678,0.000431,0.664974
2035000,0.0324,0.013523,0.002678,0.000431,0.672144
2036000,0.0324,0.013523,0.002678,0.000431,0.653222
2037000,0.0324,0.013523,0.002678,0.000431,0.658745
2038000,0.0324,0.013523,0.002678,0.000431,0.649108
2039000,0.0324,0.013523,0.002678,0.000431,0.650283
2040000,0.0324,0.013523,0.002678,0.000431,0.641469
2041000,0.0324,0.013523,0.002678,0.000431,0.637825
2042000,0.0324,0.013523,0.002678,0.000431,0.639001
2043000,0.0324,0.013523,0.002678,0.000431,0.650989
2044000,0.0324,0.013523,0.002678,0.000431,0.639001
2045000,0.0324,0.013523,0.002678,0.000431,0.637825
2046000,0.0324,0.013523,0.002678,0.000431,0.622664
2047000,0.0324,0.013523,0.002678,0.000431,0.634535
2048000,0.0324,0.013523,0.002678,0.000431,0.635122
2049000,0.0324,0.013523,0.002678,0.000431,0.630891
2050000,0.0324,0.013523,0.002678,0.000431,0.625132
2051000,0.0324,0.013523,0.002678,0.000431,0.629598
2052000,0.0324,0.013523,0.002678,0.000431,0.616200
2053000,0.0324,0.013523,0.002678,0.000431,0.630774
2054000,0.0324,0.013523,0.002678,0.000431,0.602567
2055000,0.0324,0.013523,0.002678,0.000431,0.617963
2056000,0.0324,0.013523,0.002678,0.000431,0.591519
2057000,0.0324,0.013523,0.002678,0.000431,0.572480
2058000,0.0324,0.013523,0.002678,0.000431,0.595750
2059000,0.0324,0.013523,0.002678,0.000431,0.599981
2060000,0.0324,0.013523,0.002678,0.000431,0.599629
2061000,0.0324,0.013523,0.002678,0.000431,0.589639
2062000,0.0324,0.013523,0.002678,0.000431,0.575183
2063000,0.0324,0.013523,0.002678,0.000431,0.578591
2064000,0.0324,0.013523,0.002678,0.000431,0.575418
2065000,0.0324,0.013523,0.002678,0.000431,0.580589
2066000,0.0324,0.013523,0.002678,0.000431,0.575300
2067000,0.0324,0.013523,0.002678,0.000431,0.568249
2068000,0.0324,0.013523,0.002678,0.000431,0.583292
2069000,0.0324,0.013523,0.002678,0.000431,0.581529
2070000,0.0324,0.013523,0.002678,0.000431,0.588229
2071000,0.0324,0.013523,0.002678,0.000431,0.572950
2072000,0.0324,0.013523,0.002678,0.000431,0.576358
2073000,0.0324,0.013523,0.002678,0.000431,0.576711
2074000,0.0324,0.013523,0.002678,0.000431,0.575183
2075000,0.0324,0.013523,0.002678,0.000431,0.567896
2076000,0.0324,0.013523,0.002678,0.000431,0.568366
2077000,0.0324,0.013523,0.002678,0.000431,0.583057
2078000,0.0324,0.013523,0.002678,0.000431,0.570952
2079000,0.0324,0.013523,0.002678,0.000431,0.556261
2080000,0.0324,0.013523,0.002678,0.000431,0.586231
2081000,0.0324,0.013523,0.002678,0.000431,0.581294
2082000,0.0324,0.013523,0.002678,0.000431,0.578004
2083000,0.0324,0.013523,0.002678,0.000431,0.575888
2084000,0.0324,0.013523,0.002678,0.000431,0.576241
2085000,0.0324,0.013523,0.002678,0.000431,0.578826
2086000,0.0324,0.013523,0.002678,0.000431,0.559199
2087000,0.0324,0.013523,0.002678,0.000431,0.575771
2088000,0.0324,0.013523,0.002678,0.000431,0.570129
2089000,0.0324,0.013523,0.002678,0.000431,0.567896
2090000,0.0324,0.013523,0.002678,0.000431,0.574243
2091000,0.0324,0.013523,0.002678,0.000431,0.550267
2092000,0.0324,0.013523,0.002678,0.000431,0.554498
2093000,0.0324,0.013523,0.002678,0.000431,0.544273
2094000,0.0324,0.013523,0.002678,0.000431,0.543568
2095000,0.0324,0.013523,0.002678,0.000431,0.514656
2096000,0.0324,0.013523,0.002678,0.000431,0.539219
2097000,0.0324,0.013523,0.002678,0.000431,0.549209
2098000,0.0324,0.013523,0.002678,0.000431,0.540982
2099000,0.0324,0.013523,0.002678,0.000431,0.550502
2100000,0.0324,0.013523,0.002678,0.000431,0.546389
2101000,0.0324,0.013523,0.002678,0.000431,0.538867
2102000,0.0324,0.013523,0.002678,0.000431,0.540512
2103000,0.0324,0.013523,0.002678,0.000431,0.533343
2104000,0.0324,0.013523,0.002678,0.000431,0.542393
2105000,0.0324,0.013523,0.002678,0.000431,0.543450
2106000,0.0324,0.013523,0.002678,0.000431,0.535223
2107000,0.0324,0.013523,0.002678,0.000431,0.546976
2108000,0.0324,0.013523,0.002678,0.000431,0.546153
2109000,0.0324,0.013523,0.002678,0.000431,0.543450
2110000,0.0324,0.013523,0.002678,0.000431,0.532520
2111000,0.0324,0.013523,0.002678,0.000431,0.541335
2112000,0.0324,0.013523,0.002678,0.000431,0.534636
2113000,0.0324,0.013523,0.002678,0.000431,0.539689
2114000,0.0324,0.013523,0.002678,0.000431,0.554968
2115000,0.0324,0.013523,0.002678,0.000431,0.548386
2116000,0.0324,0.013523,0.002678,0.000431,0.546036
2117000,0.0324,0.013523,0.002678,0.000431,0.529464
2118000,0.0324,0.013523,0.002678,0.000431,0.537104
2119000,0.0324,0.013523,0.002678,0.000431,0.552147
2120000,0.0324,0.013523,0.002678,0.000431,0.556849
2121000,0.0324,0.013523,0.002678,0.000431,0.560374
2122000,0.0324,0.013523,0.002678,0.000431,0.535929
2123000,0.0324,0.013523,0.002678,0.000431,0.546271
2124000,0.0324,0.013523,0.002678,0.000431,0.534518
2125000,0.0324,0.013523,0.002678,0.000431,0.543920
2126000,0.0324,0.013523,0.002678,0.000431,0.552500
2127000,0.0324,0.013523,0.002678,0.000431,0.573067
2128000,0.0324,0.013523,0.002678,0.000431,0.547681
2129000,0.0324,0.013523,0.002678,0.000431,0.534401
2130000,0.0324,0.013523,0.002678,0.000431,0.546976
2131000,0.0324,0.013523,0.002678,0.000431,0.562725
2132000,0.0324,0.013523,0.002678,0.000431,0.543450
2133000,0.0324,0.013523,0.002678,0.000431,0.549209
2134000,0.0324,0.013523,0.002678,0.000431,0.545566
2135000,0.0324,0.013523,0.002678,0.000431,0.550149
2136000,0.0324,0.013523,0.002678,0.000431,0.535223
2137000,0.0324,0.013523,0.002678,0.000431,0.526409
2138000,0.0324,0.013523,0.002678,0.000431,0.537926
2139000,0.0324,0.013523,0.002678,0.000431,0.526174
2140000,0.0324,0.013523,0.002678,0.000431,0.529582
2141000,0.0324,0.013523,0.002678,0.000431,0.532285
2142000,0.0324,0.013523,0.002678,0.000431,0.514303
2143000,0.0324,0.013523,0.002678,0.000431,0.506311
2144000,0.0324,0.013523,0.002678,0.000431,0.511365
2145000,0.0324,0.013523,0.002678,0.000431,0.506546
2146000,0.0324,0.013523,0.002678,0.000431,0.514303
2147000,0.0324,0.013523,0.002678,0.000431,0.530170
2148000,0.0324,0.013523,0.002678,0.000431,0.513363
2149000,0.0324,0.013523,0.002678,0.000431,0.515126
2150000,0.0324,0.013523,0.002678,0.000431,0.514891
2151000,0.0324,0.013523,0.002678,0.000431,0.508074
2152000,0.0324,0.013523,0.002678,0.000431,0.500435
2153000,0.0324,0.013523,0.002678,0.000431,0.509367
2154000,0.0324,0.013523,0.002678,0.000431,0.521355
2155000,0.0324,0.013523,0.002678,0.000431,0.501375
2156000,0.0324,0.013523,0.002678,0.000431,0.512775
2157000,0.0324,0.013523,0.002678,0.000431,0.544155
2158000,0.0324,0.013523,0.002678,0.000431,0.531345
2159000,0.0324,0.013523,0.002678,0.000431,0.531580
2160000,0.0324,0.013523,0.002678,0.000431,0.513833
2161000,0.0324,0.013523,0.002678,0.000431,0.521120
2162000,0.0324,0.013523,0.002678,0.000431,0.517594
2163000,0.0324,0.013523,0.002678,0.000431,0.519592
2164000,0.0324,0.013523,0.002678,0.000431,0.515244
2165000,0.0324,0.013523,0.002678,0.000431,0.510072
2166000,0.0324,0.013523,0.002678,0.000431,0.524411
2167000,0.0324,0.013523,0.002678,0.000431,0.524646
2168000,0.0324,0.013523,0.002678,0.000431,0.504901
2169000,0.0324,0.013523,0.002678,0.000431,0.518182
2170000,0.0324,0.013523,0.002678,0.000431,0.516654
2171000,0.0324,0.013523,0.002678,0.000431,0.493736
2172000,0.0324,0.013523,0.002678,0.000431,0.506311
2173000,0.0324,0.013523,0.002678,0.000431,0.490680
2174000,0.0324,0.013523,0.002678,0.000431,0.503726
2175000,0.0324,0.013523,0.002678,0.000431,0.515949
2176000,0.0324,0.013523,0.002678,0.000431,0.510425
2177000,0.0324,0.013523,0.002678,0.000431,0.497732
2178000,0.0324,0.013523,0.002678,0.000431,0.517006
2179000,0.0324,0.013523,0.002678,0.000431,0.527702
2180000,0.0324,0.013523,0.002678,0.000431,0.513481
2181000,0.0324,0.013523,0.002678,0.000431,0.501493
2182000,0.0324,0.013523,0.002678,0.000431,0.499142
2183000,0.0324,0.013523,0.002678,0.000431,0.503608
2184000,0.0324,0.013523,0.002678,0.000431,0.501963
2185000,0.0324,0.013523,0.002678,0.000431,0.495851
2186000,0.0324,0.013523,0.002678,0.000431,0.508309
2187000,0.0324,0.013523,0.002678,0.000431,0.506899
2188000,0.0324,0.013523,0.002678,0.000431,0.513011
2189000,0.0324,0.013523,0.002678,0.000431,0.523941
2190000,0.0324,0.013523,0.002678,0.000431,0.497027
2191000,0.0324,0.013523,0.002678,0.000431,0.497732
2192000,0.0324,0.013523,0.002678,0.000431,0.502668
2193000,0.0324,0.013523,0.002678,0.000431,0.505959
2194000,0.0324,0.013523,0.002678,0.000431,0.492561
2195000,0.0324,0.013523,0.002678,0.000431,0.494206
2196000,0.0324,0.013523,0.002678,0.000431,0.503138
2197000,0.0324,0.013523,0.002678,0.000431,0.515949
2198000,0.0324,0.013523,0.002678,0.000431,0.508780
2199000,0.0324,0.013523,0.002678,0.000431,0.496086
2200000,0.0324,0.013523,0.002678,0.000431,0.508427
2201000,0.0324,0.013523,0.002678,0.000431,0.514773
2202000,0.0324,0.013523,0.002678,0.000431,0.501845
2203000,0.0324,0.013523,0.002678,0.000431,0.496322
2204000,0.0324,0.013523,0.002678,0.000431,0.494088
2205000,0.0324,0.013523,0.002678,0.000431,0.481748
2206000,0.0324,0.013523,0.002678,0.000431,0.484804
2207000,0.0324,0.013523,0.002678,0.000431,0.477987
2208000,0.0324,0.013523,0.002678,0.000431,0.492326
2209000,0.0324,0.013523,0.002678,0.000431,0.489740
2210000,0.0324,0.013523,0.002678,0.000431,0.479515
2211000,0.0324,0.013523,0.002678,0.000431,0.475519
2212000,0.0324,0.013523,0.002678,0.000431,0.474814
2213000,0.0324,0.013523,0.002678,0.000431,0.487154
2214000,0.0324,0.013523,0.002678,0.000431,0.474696
2215000,0.0324,0.013523,0.002678,0.000431,0.483276
2216000,0.0324,0.013523,0.002678,0.000431,0.484921
2217000,0.0324,0.013523,0.002678,0.000431,0.467997
2218000,0.0324,0.013523,0.002678,0.000431,0.474814
2219000,0.0324,0.013523,0.002678,0.000431,0.477517
2220000,0.0324,0.013523,0.002678,0.000431,0.468585
2221000,0.0324,0.013523,0.002678,0.000431,0.471523
2222000,0.0324,0.013523,0.002678,0.000431,0.462356
2223000,0.0324,0.013523,0.002678,0.000431,0.463296
2224000,0.0324,0.013523,0.002678,0.000431,0.460475
2225000,0.0324,0.013523,0.002678,0.000431,0.467292
2226000,0.0324,0.013523,0.002678,0.000431,0.452954
2227000,0.0324,0.013523,0.002678,0.000431,0.461886
2228000,0.0324,0.013523,0.002678,0.000431,0.464941
2229000,0.0324,0.013523,0.002678,0.000431,0.456597
2230000,0.0324,0.013523,0.002678,0.000431,0.459535
2231000,0.0324,0.013523,0.002678,0.000431,0.456362
2232000,0.0324,0.013523,0.002678,0.000431,0.460828
2233000,0.0324,0.013523,0.002678,0.000431,0.458125
2234000,0.0324,0.013523,0.002678,0.000431,0.460123
2235000,0.0324,0.013523,0.002678,0.000431,0.459418
2236000,0.0324,0.013523,0.002678,0.000431,0.468232
2237000,0.0324,0.013523,0.002678,0.000431,0.457772
2238000,0.0324,0.013523,0.002678,0.000431,0.444374
2239000,0.0324,0.013523,0.002678,0.000431,0.446725
2240000,0.0324,0.013523,0.002678,0.000431,0.447900
2241000,0.0324,0.013523,0.002678,0.000431,0.444492
2242000,0.0324,0.013523,0.002678,0.000431,0.454011
2243000,0.0324,0.013523,0.002678,0.000431,0.467880
2244000,0.0324,0.013523,0.002678,0.000431,0.446372
2245000,0.0324,0.013523,0.002678,0.000431,0.452366
2246000,0.0324,0.013523,0.002678,0.000431,0.456597
2247000,0.0324,0.013523,0.002678,0.000431,0.461886
2248000,0.0324,0.013523,0.002678,0.000431,0.454246
2249000,0.0324,0.013523,0.002678,0.000431,0.471758
2250000,0.0324,0.013523,0.002678,0.000431,0.488682
2251000,0.0324,0.013523,0.002678,0.000431,0.503373
2252000,0.0324,0.013523,0.002678,0.000431,0.483276
2253000,0.0324,0.013523,0.002678,0.000431,0.493383
2254000,0.0324,0.013523,0.002678,0.000431,0.489035
2255000,0.0324,0.013523,0.002678,0.000431,0.503608
2256000,0.0324,0.013523,0.002678,0.000431,0.490563
2257000,0.0324,0.013523,0.002678,0.000431,0.503608
2258000,0.0324,0.013523,0.002678,0.000431,0.509250
2259000,0.0324,0.013523,0.002678,0.000431,0.517359
2260000,0.0324,0.013523,0.002678,0.000431,0.504431
2261000,0.0324,0.013523,0.002678,0.000431,0.502433
2262000,0.0324,0.013523,0.002678,0.000431,0.509485
2263000,0.0324,0.013523,0.002678,0.000431,0.502315
2264000,0.0324,0.013523,0.002678,0.000431,0.486684
2265000,0.0324,0.013523,0.002678,0.000431,0.500553
2266000,0.0324,0.013523,0.002678,0.000431,0.502433
2267000,0.0324,0.013523,0.002678,0.000431,0.480925
2268000,0.0324,0.013523,0.002678,0.000431,0.489975
2269000,0.0324,0.013523,0.002678,0.000431,0.517124
2270000,0.0324,0.013523,0.002678,0.000431,0.503961
2271000,0.0324,0.013523,0.002678,0.000431,0.502315
2272000,0.0324,0.013523,0.002678,0.000431,0.477399
2273000,0.0324,0.013523,0.002678,0.000431,0.503256
2274000,0.0324,0.013523,0.002678,0.000431,0.495499
2275000,0.0324,0.013523,0.002678,0.000431,0.498084
2276000,0.0324,0.013523,0.002678,0.000431,0.498672
2277000,0.0324,0.013523,0.002678,0.000431,0.506429
2278000,0.0324,0.013523,0.002678,0.000431,0.492678
2279000,0.0324,0.013523,0.002678,0.000431,0.499965
2280000,0.0324,0.013523,0.002678,0.000431,0.488330
2281000,0.0324,0.013523,0.002678,0.000431,0.491973
2282000,0.0324,0.013523,0.002678,0.000431,0.493148
2283000,0.0324,0.013523,0.002678,0.000431,0.488212
2284000,0.0324,0.013523,0.002678,0.000431,0.492443
2285000,0.0324,0.013523,0.002678,0.000431,0.474814
2286000,0.0324,0.013523,0.002678,0.000431,0.479045
2287000,0.0324,0.013523,0.002678,0.000431,0.492561
2288000,0.0324,0.013523,0.002678,0.000431,0.486449
2289000,0.0324,0.013523,0.002678,0.000431,0.484921
2290000,0.0324,0.013523,0.002678,0.000431,0.498202
2291000,0.0324,0.013523,0.002678,0.000431,0.483628
2292000,0.0324,0.013523,0.002678,0.000431,0.489152
2293000,0.0324,0.013523,0.002678,0.000431,0.488800
2294000,0.0324,0.013523,0.002678,0.000431,0.485862
2295000,0.0324,0.013523,0.002678,0.000431,0.475401
2296000,0.0324,0.013523,0.002678,0.000431,0.474931
2297000,0.0324,0.013523,0.002678,0.000431,0.487389
2298000,0.0324,0.013523,0.002678,0.000431,0.474461
2299000,0.0324,0.013523,0.002678,0.000431,0.467645
2300000,0.0324,0.013523,0.002678,0.000431,0.472111
2301000,0.0324,0.013523,0.002678,0.000431,0.483158
2302000,0.0324,0.013523,0.002678,0.000431,0.474814
2303000,0.0324,0.013523,0.002678,0.000431,0.487859
2304000,0.0324,0.013523,0.002678,0.000431,0.479633
2305000,0.0324,0.013523,0.002678,0.000431,0.490798
2306000,0.0324,0.013523,0.002678,0.000431,0.493148
2307000,0.0324,0.013523,0.002678,0.000431,0.483511
2308000,0.0324,0.013523,0.002678,0.000431,0.491268
2309000,0.0324,0.013523,0.002678,0.000431,0.487389
2310000,0.0324,0.013523,0.002678,0.000431,0.483864
2311000,0.0324,0.013523,0.002678,0.000431,0.485509
2312000,0.0324,0.013523,0.002678,0.000431,0.477987
2313000,0.0324,0.013523,0.002678,0.000431,0.492443
2314000,0.0324,0.013523,0.002678,0.000431,0.483393
2315000,0.0324,0.013523,0.002678,0.000431,0.477164
2316000,0.0324,0.013523,0.002678,0.000431,0.474696
2317000,0.0324,0.013523,0.002678,0.000431,0.476224
2318000,0.0324,0.013523,0.002678,0.000431,0.459300
2319000,0.0324,0.013523,0.002678,0.000431,0.459065
2320000,0.0324,0.013523,0.002678,0.000431,0.460358
2321000,0.0324,0.013523,0.002678,0.000431,0.467292
2322000,0.0324,0.013523,0.002678,0.000431,0.460005
2323000,0.0324,0.013523,0.002678,0.000431,0.461181
2324000,0.0324,0.013523,0.002678,0.000431,0.461063
2325000,0.0324,0.013523,0.002678,0.000431,0.457772
2326000,0.0324,0.013523,0.002678,0.000431,0.483393
2327000,0.0324,0.013523,0.002678,0.000431,0.454364
2328000,0.0324,0.013523,0.002678,0.000431,0.460005
2329000,0.0324,0.013523,0.002678,0.000431,0.456479
2330000,0.0324,0.013523,0.002678,0.000431,0.454599
2331000,0.0324,0.013523,0.002678,0.000431,0.445667
2332000,0.0324,0.013523,0.002678,0.000431,0.451778
2333000,0.0324,0.013523,0.002678,0.000431,0.462121
2334000,0.0324,0.013523,0.002678,0.000431,0.456597
2335000,0.0324,0.013523,0.002678,0.000431,0.460475
2336000,0.0324,0.013523,0.002678,0.000431,0.456009
2337000,0.0324,0.013523,0.002678,0.000431,0.449663
2338000,0.0324,0.013523,0.002678,0.000431,0.441671
2339000,0.0324,0.013523,0.002678,0.000431,0.438380
2340000,0.0324,0.013523,0.002678,0.000431,0.435089
2341000,0.0324,0.013523,0.002678,0.000431,0.434972
2342000,0.0324,0.013523,0.002678,0.000431,0.448723
2343000,0.0324,0.013523,0.002678,0.000431,0.437557
2344000,0.0324,0.013523,0.002678,0.000431,0.431211
2345000,0.0324,0.013523,0.002678,0.000431,0.430036
2346000,0.0324,0.013523,0.002678,0.000431,0.436735
2347000,0.0324,0.013523,0.002678,0.000431,0.433797
2348000,0.0324,0.013523,0.002678,0.000431,0.419105
2349000,0.0324,0.013523,0.002678,0.000431,0.427568
2350000,0.0324,0.013523,0.002678,0.000431,0.411114
2351000,0.0324,0.013523,0.002678,0.000431,0.411701
2352000,0.0324,0.013523,0.002678,0.000431,0.406765
2353000,0.0324,0.013523,0.002678,0.000431,0.419928
2354000,0.0324,0.013523,0.002678,0.000431,0.418165
2355000,0.0324,0.013523,0.002678,0.000431,0.416872
2356000,0.0324,0.013523,0.002678,0.000431,0.405237
2357000,0.0324,0.013523,0.002678,0.000431,0.410173
2358000,0.0324,0.013523,0.002678,0.000431,0.410879
2359000,0.0324,0.013523,0.002678,0.000431,0.402416
2360000,0.0324,0.013523,0.002678,0.000431,0.396305
2361000,0.0324,0.013523,0.002678,0.000431,0.399596
2362000,0.0324,0.013523,0.002678,0.000431,0.403122
2363000,0.0324,0.013523,0.002678,0.000431,0.396893
2364000,0.0324,0.013523,0.002678,0.000431,0.383730
2365000,0.0324,0.013523,0.002678,0.000431,0.398891
2366000,0.0324,0.013523,0.002678,0.000431,0.428508
2367000,0.0324,0.013523,0.002678,0.000431,0.406765
2368000,0.0324,0.013523,0.002678,0.000431,0.410173
2369000,0.0324,0.013523,0.002678,0.000431,0.393132
2370000,0.0324,0.013523,0.002678,0.000431,0.388431
2371000,0.0324,0.013523,0.002678,0.000431,0.394425
2372000,0.0324,0.013523,0.002678,0.000431,0.396658
2373000,0.0324,0.013523,0.002678,0.000431,0.395717
2374000,0.0324,0.013523,0.002678,0.000431,0.384670
2375000,0.0324,0.013523,0.002678,0.000431,0.383847
2376000,0.0324,0.013523,0.002678,0.000431,0.386903
2377000,0.0324,0.013523,0.002678,0.000431,0.389253
2378000,0.0324,0.013523,0.002678,0.000431,0.396658
2379000,0.0324,0.013523,0.002678,0.000431,0.396658
2380000,0.0324,0.013523,0.002678,0.000431,0.389371
2381000,0.0324,0.013523,0.002678,0.000431,0.393954
2382000,0.0324,0.013523,0.002678,0.000431,0.382437
2383000,0.0324,0.013523,0.002678,0.000431,0.379263
2384000,0.0324,0.013523,0.002678,0.000431,0.385022
2385000,0.0324,0.013523,0.002678,0.000431,0.385727
2386000,0.0324,0.013523,0.002678,0.000431,0.395482
2387000,0.0324,0.013523,0.002678,0.000431,0.402652
2388000,0.0324,0.013523,0.002678,0.000431,0.386198
2389000,0.0324,0.013523,0.002678,0.000431,0.395717
2390000,0.0324,0.013523,0.002678,0.000431,0.383847
2391000,0.0324,0.013523,0.002678,0.000431,0.377736
2392000,0.0324,0.013523,0.002678,0.000431,0.398303
2393000,0.0324,0.013523,0.002678,0.000431,0.391604
2394000,0.0324,0.013523,0.002678,0.000431,0.392779
2395000,0.0324,0.013523,0.002678,0.000431,0.385022
2396000,0.0324,0.013523,0.002678,0.000431,0.393484
2397000,0.0324,0.013523,0.002678,0.000431,0.400301
2398000,0.0324,0.013523,0.002678,0.000431,0.398303
2399000,0.0324,0.013523,0.002678,0.000431,0.388548
2400000,0.0324,0.013523,0.002678,0.000431,0.393719
2401000,0.0324,0.013523,0.002678,0.000431,0.391604
2402000,0.0324,0.013523,0.002678,0.000431,0.405472
2403000,0.0324,0.013523,0.002678,0.000431,0.401476
2404000,0.0324,0.013523,0.002678,0.000431,0.401359
2405000,0.0324,0.013523,0.002678,0.000431,0.400301
2406000,0.0324,0.013523,0.002678,0.000431,0.401594
2407000,0.0324,0.013523,0.002678,0.000431,0.413229
2408000,0.0324,0.013523,0.002678,0.000431,0.398773
2409000,0.0324,0.013523,0.002678,0.000431,0.401006
2410000,0.0324,0.013523,0.002678,0.000431,0.393954
2411000,0.0324,0.013523,0.002678,0.000431,0.394660
2412000,0.0324,0.013523,0.002678,0.000431,0.386785
2413000,0.0324,0.013523,0.002678,0.000431,0.398185
2414000,0.0324,0.013523,0.002678,0.000431,0.396305
2415000,0.0324,0.013523,0.002678,0.000431,0.382437
2416000,0.0324,0.013523,0.002678,0.000431,0.392662
2417000,0.0324,0.013523,0.002678,0.000431,0.410526
2418000,0.0324,0.013523,0.002678,0.000431,0.392897
2419000,0.0324,0.013523,0.002678,0.000431,0.379851
2420000,0.0324,0.013523,0.002678,0.000431,0.386198
2421000,0.0324,0.013523,0.002678,0.000431,0.384435
2422000,0.0324,0.013523,0.002678,0.000431,0.383377
2423000,0.0324,0.013523,0.002678,0.000431,0.384787
2424000,0.0324,0.013523,0.002678,0.000431,0.387020
2425000,0.0324,0.013523,0.002678,0.000431,0.383024
2426000,0.0324,0.013523,0.002678,0.000431,0.385140
2427000,0.0324,0.013523,0.002678,0.000431,0.385727
2428000,0.0324,0.013523,0.002678,0.000431,0.382554
2429000,0.0324,0.013523,0.002678,0.000431,0.387725
2430000,0.0324,0.013523,0.002678,0.000431,0.389253
2431000,0.0324,0.013523,0.002678,0.000431,0.394777
2432000,0.0324,0.013523,0.002678,0.000431,0.381614
2433000,0.0324,0.013523,0.002678,0.000431,0.388196
2434000,0.0324,0.013523,0.002678,0.000431,0.390781
2435000,0.0324,0.013523,0.002678,0.000431,0.387255
2436000,0.0324,0.013523,0.002678,0.000431,0.383730
2437000,0.0324,0.013523,0.002678,0.000431,0.378911
2438000,0.0324,0.013523,0.002678,0.000431,0.377853
2439000,0.0324,0.013523,0.002678,0.000431,0.383142
2440000,0.0324,0.013523,0.002678,0.000431,0.380439
2441000,0.0324,0.013523,0.002678,0.000431,0.382319
2442000,0.0324,0.013523,0.002678,0.000431,0.369509
2443000,0.0324,0.013523,0.002678,0.000431,0.383730
2444000,0.0324,0.013523,0.002678,0.000431,0.378323
2445000,0.0324,0.013523,0.002678,0.000431,0.395247
2446000,0.0324,0.013523,0.002678,0.000431,0.397363
2447000,0.0324,0.013523,0.002678,0.000431,0.390664
2448000,0.0324,0.013523,0.002678,0.000431,0.386785
2449000,0.0324,0.013523,0.002678,0.000431,0.398303
2450000,0.0324,0.013523,0.002678,0.000431,0.386785
2451000,0.0324,0.013523,0.002678,0.000431,0.391721
2452000,0.0324,0.013523,0.002678,0.000431,0.397010
2453000,0.0324,0.013523,0.002678,0.000431,0.403592
2454000,0.0324,0.013523,0.002678,0.000431,0.388901
2455000,0.0324,0.013523,0.002678,0.000431,0.390664
2456000,0.0324,0.013523,0.002678,0.000431,0.399948
2457000,0.0324,0.013523,0.002678,0.000431,0.399948
2458000,0.0324,0.013523,0.002678,0.000431,0.403827
2459000,0.0324,0.013523,0.002678,0.000431,0.386668
2460000,0.0324,0.013523,0.002678,0.000431,0.399243
2461000,0.0324,0.013523,0.002678,0.000431,0.400301
2462000,0.0324,0.013523,0.002678,0.000431,0.390076
2463000,0.0324,0.013523,0.002678,0.000431,0.409351
2464000,0.0324,0.013523,0.002678,0.000431,0.408410
2465000,0.0324,0.013523,0.002678,0.000431,0.398421
2466000,0.0324,0.013523,0.002678,0.000431,0.398185
2467000,0.0324,0.013523,0.002678,0.000431,0.405237
2468000,0.0324,0.013523,0.002678,0.000431,0.414874
2469000,0.0324,0.013523,0.002678,0.000431,0.430036
2470000,0.0324,0.013523,0.002678,0.000431,0.425452
2471000,0.0324,0.013523,0.002678,0.000431,0.410761
2472000,0.0324,0.013523,0.002678,0.000431,0.432739
2473000,0.0324,0.013523,0.002678,0.000431,0.434384
2474000,0.0324,0.013523,0.002678,0.000431,0.446137
2475000,0.0324,0.013523,0.002678,0.000431,0.433679
2476000,0.0324,0.013523,0.002678,0.000431,0.431446
2477000,0.0324,0.013523,0.002678,0.000431,0.434032
2478000,0.0324,0.013523,0.002678,0.000431,0.438850
2479000,0.0324,0.013523,0.002678,0.000431,0.427568
2480000,0.0324,0.013523,0.002678,0.000431,0.460946
2481000,0.0324,0.013523,0.002678,0.000431,0.465647
2482000,0.0324,0.013523,0.002678,0.000431,0.467997
2483000,0.0324,0.013523,0.002678,0.000431,0.466117
2484000,0.0324,0.013523,0.002678,0.000431,0.488330
2485000,0.0324,0.013523,0.002678,0.000431,0.511013
2486000,0.0324,0.013523,0.002678,0.000431,0.504901
2487000,0.0324,0.013523,0.002678,0.000431,0.494911
2488000,0.0324,0.013523,0.002678,0.000431,0.498319
2489000,0.0324,0.013523,0.002678,0.000431,0.485156
2490000,0.0324,0.013523,0.002678,0.000431,0.517829
2491000,0.0324,0.013523,0.002678,0.000431,0.503726
2492000,0.0324,0.013523,0.002678,0.000431,0.520650
2493000,0.0324,0.013523,0.002678,0.000431,0.527937
2494000,0.0324,0.013523,0.002678,0.000431,0.534166
2495000,0.0324,0.013523,0.002678,0.000431,0.547799
2496000,0.0324,0.013523,0.002678,0.000431,0.550149
2497000,0.0324,0.013523,0.002678,0.000431,0.524528
2498000,0.0324,0.013523,0.002678,0.000431,0.530287
2499000,0.0324,0.013523,0.002678,0.000431,0.561315
2500000,0.0324,0.013523,0.002678,0.000431,0.578709
2501000,0.0324,0.013523,0.002678,0.000431,0.537809
2502000,0.0324,0.013523,0.002678,0.000431,0.610911
2503000,0.0324,0.013523,0.002678,0.000431,0.610324
2504000,0.0324,0.013523,0.002678,0.000431,0.619256
2505000,0.0324,0.013523,0.002678,0.000431,0.624310
2506000,0.0324,0.013523,0.002678,0.000431,0.630656
2507000,0.0324,0.013523,0.002678,0.000431,0.622899
2508000,0.0324,0.013523,0.002678,0.000431,0.631479
2509000,0.0324,0.013523,0.002678,0.000431,0.615965
2510000,0.0324,0.013523,0.002678,0.000431,0.631949
2511000,0.0324,0.013523,0.002678,0.000431,0.647933
2512000,0.0324,0.013523,0.002678,0.000431,0.655220
2513000,0.0324,0.013523,0.002678,0.000431,0.633007
2514000,0.0324,0.013523,0.002678,0.000431,0.628776
2515000,0.0324,0.013523,0.002678,0.000431,0.639941
2516000,0.0324,0.013523,0.002678,0.000431,0.643232
2517000,0.0324,0.013523,0.002678,0.000431,0.651224
2518000,0.0324,0.013523,0.002678,0.000431,0.635827
2519000,0.0324,0.013523,0.002678,0.000431,0.640881
2520000,0.0324,0.013523,0.002678,0.000431,0.653104
2521000,0.0324,0.013523,0.002678,0.000431,0.636298
2522000,0.0324,0.013523,0.002678,0.000431,0.643467
2523000,0.0324,0.013523,0.002678,0.000431,0.647110
2524000,0.0324,0.013523,0.002678,0.000431,0.654632
2525000,0.0324,0.013523,0.002678,0.000431,0.646875
2526000,0.0324,0.013523,0.002678,0.000431,0.637590
2527000,0.0324,0.013523,0.002678,0.000431,0.646758
2528000,0.0324,0.013523,0.002678,0.000431,0.654632
2529000,0.0324,0.013523,0.002678,0.000431,0.650989
2530000,0.0324,0.013523,0.002678,0.000431,0.657923
2531000,0.0324,0.013523,0.002678,0.000431,0.645112
2532000,0.0324,0.013523,0.002678,0.000431,0.651106
2533000,0.0324,0.013523,0.002678,0.000431,0.653574
2534000,0.0324,0.013523,0.002678,0.000431,0.635122
2535000,0.0324,0.013523,0.002678,0.000431,0.634417
2536000,0.0324,0.013523,0.002678,0.000431,0.653339
2537000,0.0324,0.013523,0.002678,0.000431,0.635475
2538000,0.0324,0.013523,0.002678,0.000431,0.667207
2539000,0.0324,0.013523,0.002678,0.000431,0.643937
2540000,0.0324,0.013523,0.002678,0.000431,0.644525
2541000,0.0324,0.013523,0.002678,0.000431,0.648285
2542000,0.0324,0.013523,0.002678,0.000431,0.661331
2543000,0.0324,0.013523,0.002678,0.000431,0.669088
2544000,0.0324,0.013523,0.002678,0.000431,0.655807
2545000,0.0324,0.013523,0.002678,0.000431,0.661684
2546000,0.0324,0.013523,0.002678,0.000431,0.660273
2547000,0.0324,0.013523,0.002678,0.000431,0.686952
2548000,0.0324,0.013523,0.002678,0.000431,0.679195
2549000,0.0324,0.013523,0.002678,0.000431,0.676022
2550000,0.0324,0.013523,0.002678,0.000431,0.676022
2551000,0.0324,0.013523,0.002678,0.000431,0.695297
2552000,0.0324,0.013523,0.002678,0.000431,0.711633
2553000,0.0324,0.013523,0.002678,0.000431,0.735139
2554000,0.0324,0.013523,0.002678,0.000431,0.690243
2555000,0.0324,0.013523,0.002678,0.000431,0.725266
2556000,0.0324,0.013523,0.002678,0.000431,0.702701
2557000,0.0324,0.013523,0.002678,0.000431,0.698235
2558000,0.0324,0.013523,0.002678,0.000431,0.715864
2559000,0.0324,0.013523,0.002678,0.000431,0.718215
2560000,0.0324,0.013523,0.002678,0.000431,0.723386
2561000,0.0324,0.013523,0.002678,0.000431,0.710928
2562000,0.0324,0.013523,0.002678,0.000431,0.720683
2563000,0.0324,0.013523,0.002678,0.000431,0.724561
2564000,0.0324,0.013523,0.002678,0.000431,0.738312
2565000,0.0324,0.013523,0.002678,0.000431,0.713984
2566000,0.0324,0.013523,0.002678,0.000431,0.721153
2567000,0.0324,0.013523,0.002678,0.000431,0.719390
2568000,0.0324,0.013523,0.002678,0.000431,0.699058
2569000,0.0324,0.013523,0.002678,0.000431,0.729850
2570000,0.0324,0.013523,0.002678,0.000431,0.736549
2571000,0.0324,0.013523,0.002678,0.000431,0.732436
2572000,0.0324,0.013523,0.002678,0.000431,0.715277
2573000,0.0324,0.013523,0.002678,0.000431,0.722446
2574000,0.0324,0.013523,0.002678,0.000431,0.699058
2575000,0.0324,0.013523,0.002678,0.000431,0.725149
2576000,0.0324,0.013523,0.002678,0.000431,0.726912
2577000,0.0324,0.013523,0.002678,0.000431,0.717274
2578000,0.0324,0.013523,0.002678,0.000431,0.709165
2579000,0.0324,0.013523,0.002678,0.000431,0.726324
2580000,0.0324,0.013523,0.002678,0.000431,0.725737
2581000,0.0324,0.013523,0.002678,0.000431,0.731495
2582000,0.0324,0.013523,0.002678,0.000431,0.725972
2583000,0.0324,0.013523,0.002678,0.000431,0.736432
2584000,0.0324,0.013523,0.002678,0.000431,0.721858
2585000,0.0324,0.013523,0.002678,0.000431,0.708577
2586000,0.0324,0.013523,0.002678,0.000431,0.707755
2587000,0.0324,0.013523,0.002678,0.000431,0.725619
2588000,0.0324,0.013523,0.002678,0.000431,0.716452
2589000,0.0324,0.013523,0.002678,0.000431,0.730438
2590000,0.0324,0.013523,0.002678,0.000431,0.704581
2591000,0.0324,0.013523,0.002678,0.000431,0.705169
2592000,0.0324,0.013523,0.002678,0.000431,0.713514
2593000,0.0324,0.013523,0.002678,0.000431,0.706227
2594000,0.0324,0.013523,0.002678,0.000431,0.706344
2595000,0.0324,0.013523,0.002678,0.000431,0.697647
2596000,0.0324,0.013523,0.002678,0.000431,0.699293
2597000,0.0324,0.013523,0.002678,0.000431,0.689185
2598000,0.0324,0.013523,0.002678,0.000431,0.696119
2599000,0.0324,0.013523,0.002678,0.000431,0.721741
2600000,0.0324,0.013523,0.002678,0.000431,0.700703
2601000,0.0324,0.013523,0.002678,0.000431,0.719978
2602000,0.0324,0.013523,0.002678,0.000431,0.702701
2603000,0.0324,0.013523,0.002678,0.000431,0.695532
2604000,0.0324,0.013523,0.002678,0.000431,0.707050
2605000,0.0324,0.013523,0.002678,0.000431,0.694944
2606000,0.0324,0.013523,0.002678,0.000431,0.679901
2607000,0.0324,0.013523,0.002678,0.000431,0.681193
2608000,0.0324,0.013523,0.002678,0.000431,0.693886
2609000,0.0324,0.013523,0.002678,0.000431,0.711751
2610000,0.0324,0.013523,0.002678,0.000431,0.705404
2611000,0.0324,0.013523,0.002678,0.000431,0.690596
2612000,0.0324,0.013523,0.002678,0.000431,0.680841
2613000,0.0324,0.013523,0.002678,0.000431,0.690831
2614000,0.0324,0.013523,0.002678,0.000431,0.696354
2615000,0.0324,0.013523,0.002678,0.000431,0.688715
2616000,0.0324,0.013523,0.002678,0.000431,0.679901
2617000,0.0324,0.013523,0.002678,0.000431,0.695297
2618000,0.0324,0.013523,0.002678,0.000431,0.697765
2619000,0.0324,0.013523,0.002678,0.000431,0.696825
2620000,0.0324,0.013523,0.002678,0.000431,0.675434
2621000,0.0324,0.013523,0.002678,0.000431,0.698352
2622000,0.0324,0.013523,0.002678,0.000431,0.692241
2623000,0.0324,0.013523,0.002678,0.000431,0.687892
2624000,0.0324,0.013523,0.002678,0.000431,0.674259
2625000,0.0324,0.013523,0.002678,0.000431,0.690948
2626000,0.0324,0.013523,0.002678,0.000431,0.661096
2627000,0.0324,0.013523,0.002678,0.000431,0.681781
2628000,0.0324,0.013523,0.002678,0.000431,0.698588
2629000,0.0324,0.013523,0.002678,0.000431,0.685894
2630000,0.0324,0.013523,0.002678,0.000431,0.676257
2631000,0.0324,0.013523,0.002678,0.000431,0.693416
2632000,0.0324,0.013523,0.002678,0.000431,0.690596
2633000,0.0324,0.013523,0.002678,0.000431,0.716804
2634000,0.0324,0.013523,0.002678,0.000431,0.678960
2635000,0.0324,0.013523,0.002678,0.000431,0.688480
2636000,0.0324,0.013523,0.002678,0.000431,0.693534
2637000,0.0324,0.013523,0.002678,0.000431,0.702113
2638000,0.0324,0.013523,0.002678,0.000431,0.699293
2639000,0.0324,0.013523,0.002678,0.000431,0.714219
2640000,0.0324,0.013523,0.002678,0.000431,0.715159
2641000,0.0324,0.013523,0.002678,0.000431,0.740075
2642000,0.0324,0.013523,0.002678,0.000431,0.708460
2643000,0.0324,0.013523,0.002678,0.000431,0.728440
2644000,0.0324,0.013523,0.002678,0.000431,0.721741
2645000,0.0324,0.013523,0.002678,0.000431,0.736314
2646000,0.0324,0.013523,0.002678,0.000431,0.734786
2647000,0.0324,0.013523,0.002678,0.000431,0.748419
2648000,0.0324,0.013523,0.002678,0.000431,0.730790
2649000,0.0324,0.013523,0.002678,0.000431,0.733258
2650000,0.0324,0.013523,0.002678,0.000431,0.745481
2651000,0.0324,0.013523,0.002678,0.000431,0.724796
2652000,0.0324,0.013523,0.002678,0.000431,0.712103
2653000,0.0324,0.013523,0.002678,0.000431,0.699528
2654000,0.0324,0.013523,0.002678,0.000431,0.719743
2655000,0.0324,0.013523,0.002678,0.000431,0.699880
2656000,0.0324,0.013523,0.002678,0.000431,0.693064
2657000,0.0324,0.013523,0.002678,0.000431,0.709635
2658000,0.0324,0.013523,0.002678,0.000431,0.696002
2659000,0.0324,0.013523,0.002678,0.000431,0.696590
2660000,0.0324,0.013523,0.002678,0.000431,0.709988
2661000,0.0324,0.013523,0.002678,0.000431,0.710810
2662000,0.0324,0.013523,0.002678,0.000431,0.699998
2663000,0.0324,0.013523,0.002678,0.000431,0.727147
2664000,0.0324,0.013523,0.002678,0.000431,0.723503
2665000,0.0324,0.013523,0.002678,0.000431,0.704346
2666000,0.0324,0.013523,0.002678,0.000431,0.732671
2667000,0.0324,0.013523,0.002678,0.000431,0.699410
2668000,0.0324,0.013523,0.002678,0.000431,0.724796
2669000,0.0324,0.013523,0.002678,0.000431,0.725972
2670000,0.0324,0.013523,0.002678,0.000431,0.726559
2671000,0.0324,0.013523,0.002678,0.000431,0.712456
2672000,0.0324,0.013523,0.002678,0.000431,0.736667
2673000,0.0324,0.013523,0.002678,0.000431,0.711751
2674000,0.0324,0.013523,0.002678,0.000431,0.734199
2675000,0.0324,0.013523,0.002678,0.000431,0.703289
2676000,0.0324,0.013523,0.002678,0.000431,0.712691
2677000,0.0324,0.013523,0.002678,0.000431,0.714924
2678000,0.0324,0.013523,0.002678,0.000431,0.740545
2679000,0.0324,0.013523,0.002678,0.000431,0.711986
2680000,0.0324,0.013523,0.002678,0.000431,0.711986
2681000,0.0324,0.013523,0.002678,0.000431,0.717039
2682000,0.0324,0.013523,0.002678,0.000431,0.722563
2683000,0.0324,0.013523,0.002678,0.000431,0.747127
2684000,0.0324,0.013523,0.002678,0.000431,0.703054
2685000,0.0324,0.013523,0.002678,0.000431,0.719860
2686000,0.0324,0.013523,0.002678,0.000431,0.705639
2687000,0.0324,0.013523,0.002678,0.000431,0.714219
2688000,0.0324,0.013523,0.002678,0.000431,0.713043
2689000,0.0324,0.013523,0.002678,0.000431,0.733141
2690000,0.0324,0.013523,0.002678,0.000431,0.710340
2691000,0.0324,0.013523,0.002678,0.000431,0.717274
2692000,0.0324,0.013523,0.002678,0.000431,0.702701
2693000,0.0324,0.013523,0.002678,0.000431,0.699528
2694000,0.0324,0.013523,0.002678,0.000431,0.701878
2695000,0.0324,0.013523,0.002678,0.000431,0.697647
2696000,0.0324,0.013523,0.002678,0.000431,0.694004
2697000,0.0324,0.013523,0.002678,0.000431,0.706462
2698000,0.0324,0.013523,0.002678,0.000431,0.696237
2699000,0.0324,0.013523,0.002678,0.000431,0.714336
2700000,0.0324,0.013523,0.002678,0.000431,0.708695
2701000,0.0324,0.013523,0.002678,0.000431,0.682956
2702000,0.0324,0.013523,0.002678,0.000431,0.690831
2703000,0.0324,0.013523,0.002678,0.000431,0.693534
2704000,0.0324,0.013523,0.002678,0.000431,0.678960
2705000,0.0324,0.013523,0.002678,0.000431,0.694592
2706000,0.0324,0.013523,0.002678,0.000431,0.682956
2707000,0.0324,0.013523,0.002678,0.000431,0.684602
2708000,0.0324,0.013523,0.002678,0.000431,0.688010
2709000,0.0324,0.013523,0.002678,0.000431,0.702348
2710000,0.0324,0.013523,0.002678,0.000431,0.697882
2711000,0.0324,0.013523,0.002678,0.000431,0.686835
2712000,0.0324,0.013523,0.002678,0.000431,0.689420
2713000,0.0324,0.013523,0.002678,0.000431,0.658863
2714000,0.0324,0.013523,0.002678,0.000431,0.671203
2715000,0.0324,0.013523,0.002678,0.000431,0.679901
2716000,0.0324,0.013523,0.002678,0.000431,0.659451
2717000,0.0324,0.013523,0.002678,0.000431,0.655455
2718000,0.0324,0.013523,0.002678,0.000431,0.665562
2719000,0.0324,0.013523,0.002678,0.000431,0.664034
2720000,0.0324,0.013523,0.002678,0.000431,0.660391
2721000,0.0324,0.013523,0.002678,0.000431,0.632419
2722000,0.0324,0.013523,0.002678,0.000431,0.656395
2723000,0.0324,0.013523,0.002678,0.000431,0.634770
2724000,0.0324,0.013523,0.002678,0.000431,0.640764
2725000,0.0324,0.013523,0.002678,0.000431,0.639001
2726000,0.0324,0.013523,0.002678,0.000431,0.623017
2727000,0.0324,0.013523,0.002678,0.000431,0.629951
2728000,0.0324,0.013523,0.002678,0.000431,0.627600
2729000,0.0324,0.013523,0.002678,0.000431,0.607856
2730000,0.0324,0.013523,0.002678,0.000431,0.611029
2731000,0.0324,0.013523,0.002678,0.000431,0.610559
2732000,0.0324,0.013523,0.002678,0.000431,0.608208
2733000,0.0324,0.013523,0.002678,0.000431,0.628541
2734000,0.0324,0.013523,0.002678,0.000431,0.590697
2735000,0.0324,0.013523,0.002678,0.000431,0.603860
2736000,0.0324,0.013523,0.002678,0.000431,0.593517
2737000,0.0324,0.013523,0.002678,0.000431,0.595280
2738000,0.0324,0.013523,0.002678,0.000431,0.595868
2739000,0.0324,0.013523,0.002678,0.000431,0.591167
2740000,0.0324,0.013523,0.002678,0.000431,0.605740
2741000,0.0324,0.013523,0.002678,0.000431,0.580707
2742000,0.0324,0.013523,0.002678,0.000431,0.590227
2743000,0.0324,0.013523,0.002678,0.000431,0.577181
2744000,0.0324,0.013523,0.002678,0.000431,0.570012
2745000,0.0324,0.013523,0.002678,0.000431,0.565428
2746000,0.0324,0.013523,0.002678,0.000431,0.574713
2747000,0.0324,0.013523,0.002678,0.000431,0.574595
2748000,0.0324,0.013523,0.002678,0.000431,0.550267
2749000,0.0324,0.013523,0.002678,0.000431,0.556378
2750000,0.0324,0.013523,0.002678,0.000431,0.558024
2751000,0.0324,0.013523,0.002678,0.000431,0.540042
2752000,0.0324,0.013523,0.002678,0.000431,0.556378
2753000,0.0324,0.013523,0.002678,0.000431,0.544508
2754000,0.0324,0.013523,0.002678,0.000431,0.546389
2755000,0.0324,0.013523,0.002678,0.000431,0.528524
2756000,0.0324,0.013523,0.002678,0.000431,0.524176
2757000,0.0324,0.013523,0.002678,0.000431,0.519827
2758000,0.0324,0.013523,0.002678,0.000431,0.526526
2759000,0.0324,0.013523,0.002678,0.000431,0.532168
2760000,0.0324,0.013523,0.002678,0.000431,0.510542
2761000,0.0324,0.013523,0.002678,0.000431,0.525939
2762000,0.0324,0.013523,0.002678,0.000431,0.532050
2763000,0.0324,0.013523,0.002678,0.000431,0.525821
2764000,0.0324,0.013523,0.002678,0.000431,0.529112
2765000,0.0324,0.013523,0.002678,0.000431,0.518652
2766000,0.0324,0.013523,0.002678,0.000431,0.491385
2767000,0.0324,0.013523,0.002678,0.000431,0.525469
2768000,0.0324,0.013523,0.002678,0.000431,0.520415
2769000,0.0324,0.013523,0.002678,0.000431,0.517242
2770000,0.0324,0.013523,0.002678,0.000431,0.521473
2771000,0.0324,0.013523,0.002678,0.000431,0.529464
2772000,0.0324,0.013523,0.002678,0.000431,0.506311
2773000,0.0324,0.013523,0.002678,0.000431,0.513951
2774000,0.0324,0.013523,0.002678,0.000431,0.491033
2775000,0.0324,0.013523,0.002678,0.000431,0.491973
2776000,0.0324,0.013523,0.002678,0.000431,0.489740
2777000,0.0324,0.013523,0.002678,0.000431,0.502668
2778000,0.0324,0.013523,0.002678,0.000431,0.511013
2779000,0.0324,0.013523,0.002678,0.000431,0.505724
2780000,0.0324,0.013523,0.002678,0.000431,0.487624
2781000,0.0324,0.013523,0.002678,0.000431,0.493971
2782000,0.0324,0.013523,0.002678,0.000431,0.481395
2783000,0.0324,0.013523,0.002678,0.000431,0.474931
2784000,0.0324,0.013523,0.002678,0.000431,0.492913
2785000,0.0324,0.013523,0.002678,0.000431,0.479397
2786000,0.0324,0.013523,0.002678,0.000431,0.489035
2787000,0.0324,0.013523,0.002678,0.000431,0.495734
2788000,0.0324,0.013523,0.002678,0.000431,0.498907
2789000,0.0324,0.013523,0.002678,0.000431,0.514891
2790000,0.0324,0.013523,0.002678,0.000431,0.502786
2791000,0.0324,0.013523,0.002678,0.000431,0.484334
2792000,0.0324,0.013523,0.002678,0.000431,0.495499
2793000,0.0324,0.013523,0.002678,0.000431,0.492326
2794000,0.0324,0.013523,0.002678,0.000431,0.522060
2795000,0.0324,0.013523,0.002678,0.000431,0.504548
2796000,0.0324,0.013523,0.002678,0.000431,0.501140
2797000,0.0324,0.013523,0.002678,0.000431,0.508780
2798000,0.0324,0.013523,0.002678,0.000431,0.510425
2799000,0.0324,0.013523,0.002678,0.000431,0.496322
2800000,0.0324,0.013523,0.002678,0.000431,0.482453
2801000,0.0324,0.013523,0.002678,0.000431,0.509602
2802000,0.0324,0.013523,0.002678,0.000431,0.525351
2803000,0.0324,0.013523,0.002678,0.000431,0.511835
2804000,0.0324,0.013523,0.002678,0.000431,0.516184
2805000,0.0324,0.013523,0.002678,0.000431,0.510777
2806000,0.0324,0.013523,0.002678,0.000431,0.533108
2807000,0.0324,0.013523,0.002678,0.000431,0.527937
2808000,0.0324,0.013523,0.002678,0.000431,0.534401
2809000,0.0324,0.013523,0.002678,0.000431,0.513246
2810000,0.0324,0.013523,0.002678,0.000431,0.528759
2811000,0.0324,0.013523,0.002678,0.000431,0.522060
2812000,0.0324,0.013523,0.002678,0.000431,0.528877
2813000,0.0324,0.013523,0.002678,0.000431,0.555321
2814000,0.0324,0.013523,0.002678,0.000431,0.542040
2815000,0.0324,0.013523,0.002678,0.000431,0.517594
2816000,0.0324,0.013523,0.002678,0.000431,0.529935
2817000,0.0324,0.013523,0.002678,0.000431,0.517477
2818000,0.0324,0.013523,0.002678,0.000431,0.531933
2819000,0.0324,0.013523,0.002678,0.000431,0.527349
2820000,0.0324,0.013523,0.002678,0.000431,0.525116
2821000,0.0324,0.013523,0.002678,0.000431,0.525233
2822000,0.0324,0.013523,0.002678,0.000431,0.535693
2823000,0.0324,0.013523,0.002678,0.000431,0.516771
2824000,0.0324,0.013523,0.002678,0.000431,0.509250
2825000,0.0324,0.013523,0.002678,0.000431,0.521120
2826000,0.0324,0.013523,0.002678,0.000431,0.516066
2827000,0.0324,0.013523,0.002678,0.000431,0.503726
2828000,0.0324,0.013523,0.002678,0.000431,0.527349
2829000,0.0324,0.013523,0.002678,0.000431,0.526644
2830000,0.0324,0.013523,0.002678,0.000431,0.536869
2831000,0.0324,0.013523,0.002678,0.000431,0.531345
2832000,0.0324,0.013523,0.002678,0.000431,0.542628
2833000,0.0324,0.013523,0.002678,0.000431,0.535811
2834000,0.0324,0.013523,0.002678,0.000431,0.518534
2835000,0.0324,0.013523,0.002678,0.000431,0.521120
2836000,0.0324,0.013523,0.002678,0.000431,0.530522
2837000,0.0324,0.013523,0.002678,0.000431,0.526526
2838000,0.0324,0.013523,0.002678,0.000431,0.516889
2839000,0.0324,0.013523,0.002678,0.000431,0.526644
2840000,0.0324,0.013523,0.002678,0.000431,0.524176
2841000,0.0324,0.013523,0.002678,0.000431,0.526056
2842000,0.0324,0.013523,0.002678,0.000431,0.524881
2843000,0.0324,0.013523,0.002678,0.000431,0.523823
2844000,0.0324,0.013523,0.002678,0.000431,0.517477
2845000,0.0324,0.013523,0.002678,0.000431,0.522060
2846000,0.0324,0.013523,0.002678,0.000431,0.540982
2847000,0.0324,0.013523,0.002678,0.000431,0.520062
2848000,0.0324,0.013523,0.002678,0.000431,0.520415
2849000,0.0324,0.013523,0.002678,0.000431,0.518887
2850000,0.0324,0.013523,0.002678,0.000431,0.533460
2851000,0.0324,0.013523,0.002678,0.000431,0.531110
2852000,0.0324,0.013523,0.002678,0.000431,0.526996
2853000,0.0324,0.013523,0.002678,0.000431,0.527231
2854000,0.0324,0.013523,0.002678,0.000431,0.532403
2855000,0.0324,0.013523,0.002678,0.000431,0.525704
2856000,0.0324,0.013523,0.002678,0.000431,0.524293
2857000,0.0324,0.013523,0.002678,0.000431,0.519945
2858000,0.0324,0.013523,0.002678,0.000431,0.537809
2859000,0.0324,0.013523,0.002678,0.000431,0.524528
2860000,0.0324,0.013523,0.002678,0.000431,0.520062
2861000,0.0324,0.013523,0.002678,0.000431,0.533343
2862000,0.0324,0.013523,0.002678,0.000431,0.521002
2863000,0.0324,0.013523,0.002678,0.000431,0.518652
2864000,0.0324,0.013523,0.002678,0.000431,0.521943
2865000,0.0324,0.013523,0.002678,0.000431,0.504431
2866000,0.0324,0.013523,0.002678,0.000431,0.511130
2867000,0.0324,0.013523,0.002678,0.000431,0.515949
2868000,0.0324,0.013523,0.002678,0.000431,0.498555
2869000,0.0324,0.013523,0.002678,0.000431,0.495381
2870000,0.0324,0.013523,0.002678,0.000431,0.493148
2871000,0.0324,0.013523,0.002678,0.000431,0.502668
2872000,0.0324,0.013523,0.002678,0.000431,0.501375
2873000,0.0324,0.013523,0.002678,0.000431,0.489622
2874000,0.0324,0.013523,0.002678,0.000431,0.480220
2875000,0.0324,0.013523,0.002678,0.000431,0.479162
2876000,0.0324,0.013523,0.002678,0.000431,0.482218
2877000,0.0324,0.013523,0.002678,0.000431,0.470700
2878000,0.0324,0.013523,0.002678,0.000431,0.478340
2879000,0.0324,0.013523,0.002678,0.000431,0.472463
2880000,0.0324,0.013523,0.002678,0.000431,0.476342
2881000,0.0324,0.013523,0.002678,0.000431,0.472816
2882000,0.0324,0.013523,0.002678,0.000431,0.462473
2883000,0.0324,0.013523,0.002678,0.000431,0.470465
2884000,0.0324,0.013523,0.002678,0.000431,0.457067
2885000,0.0324,0.013523,0.002678,0.000431,0.463414
2886000,0.0324,0.013523,0.002678,0.000431,0.458712
2887000,0.0324,0.013523,0.002678,0.000431,0.453541
2888000,0.0324,0.013523,0.002678,0.000431,0.456244
2889000,0.0324,0.013523,0.002678,0.000431,0.448135
2890000,0.0324,0.013523,0.002678,0.000431,0.462708
2891000,0.0324,0.013523,0.002678,0.000431,0.465999
2892000,0.0324,0.013523,0.002678,0.000431,0.467762
2893000,0.0324,0.013523,0.002678,0.000431,0.439790
2894000,0.0324,0.013523,0.002678,0.000431,0.443316
2895000,0.0324,0.013523,0.002678,0.000431,0.444139
2896000,0.0324,0.013523,0.002678,0.000431,0.440966
2897000,0.0324,0.013523,0.002678,0.000431,0.422279
2898000,0.0324,0.013523,0.002678,0.000431,0.442729
2899000,0.0324,0.013523,0.002678,0.000431,0.441553
2900000,0.0324,0.013523,0.002678,0.000431,0.442846
2901000,0.0324,0.013523,0.002678,0.000431,0.457537
2902000,0.0324,0.013523,0.002678,0.000431,0.426862
2903000,0.0324,0.013523,0.002678,0.000431,0.435912
2904000,0.0324,0.013523,0.002678,0.000431,0.438615
2905000,0.0324,0.013523,0.002678,0.000431,0.436735
2906000,0.0324,0.013523,0.002678,0.000431,0.444727
2907000,0.0324,0.013523,0.002678,0.000431,0.450368
2908000,0.0324,0.013523,0.002678,0.000431,0.449310
2909000,0.0324,0.013523,0.002678,0.000431,0.434619
2910000,0.0324,0.013523,0.002678,0.000431,0.442023
2911000,0.0324,0.013523,0.002678,0.000431,0.437205
2912000,0.0324,0.013523,0.002678,0.000431,0.429801
2913000,0.0324,0.013523,0.002678,0.000431,0.429683
2914000,0.0324,0.013523,0.002678,0.000431,0.460240
2915000,0.0324,0.013523,0.002678,0.000431,0.440731
2916000,0.0324,0.013523,0.002678,0.000431,0.463061
2917000,0.0324,0.013523,0.002678,0.000431,0.458360
2918000,0.0324,0.013523,0.002678,0.000431,0.462708
2919000,0.0324,0.013523,0.002678,0.000431,0.473051
2920000,0.0324,0.013523,0.002678,0.000431,0.470113
2921000,0.0324,0.013523,0.002678,0.000431,0.461768
2922000,0.0324,0.013523,0.002678,0.000431,0.457772
2923000,0.0324,0.013523,0.002678,0.000431,0.474344
2924000,0.0324,0.013523,0.002678,0.000431,0.460593
2925000,0.0324,0.013523,0.002678,0.000431,0.465764
2926000,0.0324,0.013523,0.002678,0.000431,0.460828
2927000,0.0324,0.013523,0.002678,0.000431,0.463179
2928000,0.0324,0.013523,0.002678,0.000431,0.463766
2929000,0.0324,0.013523,0.002678,0.000431,0.461651
2930000,0.0324,0.013523,0.002678,0.000431,0.451308
2931000,0.0324,0.013523,0.002678,0.000431,0.446255
2932000,0.0324,0.013523,0.002678,0.000431,0.455539
2933000,0.0324,0.013523,0.002678,0.000431,0.464471
2934000,0.0324,0.013523,0.002678,0.000431,0.449663
2935000,0.0324,0.013523,0.002678,0.000431,0.448252
2936000,0.0324,0.013523,0.002678,0.000431,0.453071
2937000,0.0324,0.013523,0.002678,0.000431,0.447312
2938000,0.0324,0.013523,0.002678,0.000431,0.447547
2939000,0.0324,0.013523,0.002678,0.000431,0.454599
2940000,0.0324,0.013523,0.002678,0.000431,0.462238
2941000,0.0324,0.013523,0.002678,0.000431,0.455657
2942000,0.0324,0.013523,0.002678,0.000431,0.451778
2943000,0.0324,0.013523,0.002678,0.000431,0.439438
2944000,0.0324,0.013523,0.002678,0.000431,0.436500
2945000,0.0324,0.013523,0.002678,0.000431,0.447900
2946000,0.0324,0.013523,0.002678,0.000431,0.448488
2947000,0.0324,0.013523,0.002678,0.000431,0.437440
2948000,0.0324,0.013523,0.002678,0.000431,0.432034
2949000,0.0324,0.013523,0.002678,0.000431,0.440378
2950000,0.0324,0.013523,0.002678,0.000431,0.429918
2951000,0.0324,0.013523,0.002678,0.000431,0.427215
2952000,0.0324,0.013523,0.002678,0.000431,0.445197
2953000,0.0324,0.013523,0.002678,0.000431,0.445314
2954000,0.0324,0.013523,0.002678,0.000431,0.432504
2955000,0.0324,0.013523,0.002678,0.000431,0.436030
2956000,0.0324,0.013523,0.002678,0.000431,0.432269
2957000,0.0324,0.013523,0.002678,0.000431,0.434149
2958000,0.0324,0.013523,0.002678,0.000431,0.435559
2959000,0.0324,0.013523,0.002678,0.000431,0.418753
2960000,0.0324,0.013523,0.002678,0.000431,0.416285
2961000,0.0324,0.013523,0.002678,0.000431,0.426745
2962000,0.0324,0.013523,0.002678,0.000431,0.433679
2963000,0.0324,0.013523,0.002678,0.000431,0.419458
2964000,0.0324,0.013523,0.002678,0.000431,0.434619
2965000,0.0324,0.013523,0.002678,0.000431,0.414757
2966000,0.0324,0.013523,0.002678,0.000431,0.431799
2967000,0.0324,0.013523,0.002678,0.000431,0.421691
2968000,0.0324,0.013523,0.002678,0.000431,0.426980
2969000,0.0324,0.013523,0.002678,0.000431,0.420868
2970000,0.0324,0.013523,0.002678,0.000431,0.423337
2971000,0.0324,0.013523,0.002678,0.000431,0.414169
2972000,0.0324,0.013523,0.002678,0.000431,0.405707
2973000,0.0324,0.013523,0.002678,0.000431,0.424512
2974000,0.0324,0.013523,0.002678,0.000431,0.407470
2975000,0.0324,0.013523,0.002678,0.000431,0.426275
2976000,0.0324,0.013523,0.002678,0.000431,0.414522
2977000,0.0324,0.013523,0.002678,0.000431,0.408175
2978000,0.0324,0.013523,0.002678,0.000431,0.417813
2979000,0.0324,0.013523,0.002678,0.000431,0.406295
2980000,0.0324,0.013523,0.002678,0.000431,0.409938
2981000,0.0324,0.013523,0.002678,0.000431,0.412289
2982000,0.0324,0.013523,0.002678,0.000431,0.410408
2983000,0.0324,0.013523,0.002678,0.000431,0.409233
2984000,0.0324,0.013523,0.002678,0.000431,0.413347
2985000,0.0324,0.013523,0.002678,0.000431,0.411231
2986000,0.0324,0.013523,0.002678,0.000431,0.416050
2987000,0.0324,0.013523,0.002678,0.000431,0.393014
2988000,0.0324,0.013523,0.002678,0.000431,0.410879
2989000,0.0324,0.013523,0.002678,0.000431,0.401594
2990000,0.0324,0.013523,0.002678,0.000431,0.400654
2991000,0.0324,0.013523,0.002678,0.000431,0.408645
2992000,0.0324,0.013523,0.002678,0.000431,0.393249
2993000,0.0324,0.013523,0.002678,0.000431,0.402652
2994000,0.0324,0.013523,0.002678,0.000431,0.404885
2995000,0.0324,0.013523,0.002678,0.000431,0.406648
2996000,0.0324,0.013523,0.002678,0.000431,0.388666
2997000,0.0324,0.013523,0.002678,0.000431,0.395717
2998000,0.0324,0.013523,0.002678,0.000431,0.401476
2999000,0.0324,0.013523,0.002678,0.000431,0.399596
