Cycle,Area(mm^2),PeakDynamic(W),SubthresholdLeakage(W),GateLeakage(W),RunTimeDynamic(W)
3000000,0.0324,0.013523,0.002678,0.000431,0.396423
3001000,0.0324,0.013523,0.002678,0.000431,0.413229
3002000,0.0324,0.013523,0.002678,0.000431,0.412171
3003000,0.0324,0.013523,0.002678,0.000431,0.392074
3004000,0.0324,0.013523,0.002678,0.000431,0.412406
3005000,0.0324,0.013523,0.002678,0.000431,0.397715
3006000,0.0324,0.013523,0.002678,0.000431,0.408881
3007000,0.0324,0.013523,0.002678,0.000431,0.385963
3008000,0.0324,0.013523,0.002678,0.000431,0.404885
3009000,0.0324,0.013523,0.002678,0.000431,0.399596
3010000,0.0324,0.013523,0.002678,0.000431,0.400771
3011000,0.0324,0.013523,0.002678,0.000431,0.403122
3012000,0.0324,0.013523,0.002678,0.000431,0.407000
3013000,0.0324,0.013523,0.002678,0.000431,0.414287
3014000,0.0324,0.013523,0.002678,0.000431,0.391721
3015000,0.0324,0.013523,0.002678,0.000431,0.409116
3016000,0.0324,0.013523,0.002678,0.000431,0.405825
3017000,0.0324,0.013523,0.002678,0.000431,0.418048
3018000,0.0324,0.013523,0.002678,0.000431,0.422866
3019000,0.0324,0.013523,0.002678,0.000431,0.417108
3020000,0.0324,0.013523,0.002678,0.000431,0.424277
3021000,0.0324,0.013523,0.002678,0.000431,0.419341
3022000,0.0324,0.013523,0.002678,0.000431,0.414522
3023000,0.0324,0.013523,0.002678,0.000431,0.414992
3024000,0.0324,0.013523,0.002678,0.000431,0.406765
3025000,0.0324,0.013523,0.002678,0.000431,0.402064
3026000,0.0324,0.013523,0.002678,0.000431,0.405472
3027000,0.0324,0.013523,0.002678,0.000431,0.408293
3028000,0.0324,0.013523,0.002678,0.000431,0.400301
3029000,0.0324,0.013523,0.002678,0.000431,0.395012
3030000,0.0324,0.013523,0.002678,0.000431,0.405825
3031000,0.0324,0.013523,0.002678,0.000431,0.401359
3032000,0.0324,0.013523,0.002678,0.000431,0.393484
3033000,0.0324,0.013523,0.002678,0.000431,0.387138
3034000,0.0324,0.013523,0.002678,0.000431,0.394307
3035000,0.0324,0.013523,0.002678,0.000431,0.390429
3036000,0.0324,0.013523,0.002678,0.000431,0.382672
3037000,0.0324,0.013523,0.002678,0.000431,0.391369
3038000,0.0324,0.013523,0.002678,0.000431,0.388783
3039000,0.0324,0.013523,0.002678,0.000431,0.390781
3040000,0.0324,0.013523,0.002678,0.000431,0.392897
3041000,0.0324,0.013523,0.002678,0.000431,0.391251
3042000,0.0324,0.013523,0.002678,0.000431,0.405237
3043000,0.0324,0.013523,0.002678,0.000431,0.391839
3044000,0.0324,0.013523,0.002678,0.000431,0.392897
3045000,0.0324,0.013523,0.002678,0.000431,0.384435
3046000,0.0324,0.013523,0.002678,0.000431,0.389136
3047000,0.0324,0.013523,0.002678,0.000431,0.394190
3048000,0.0324,0.013523,0.002678,0.000431,0.384670
3049000,0.0324,0.013523,0.002678,0.000431,0.385610
3050000,0.0324,0.013523,0.002678,0.000431,0.391134
3051000,0.0324,0.013523,0.002678,0.000431,0.391134
3052000,0.0324,0.013523,0.002678,0.000431,0.379734
3053000,0.0324,0.013523,0.002678,0.000431,0.368568
3054000,0.0324,0.013523,0.002678,0.000431,0.373152
3055000,0.0324,0.013523,0.002678,0.000431,0.356345
3056000,0.0324,0.013523,0.002678,0.000431,0.356933
3057000,0.0324,0.013523,0.002678,0.000431,0.360576
3058000,0.0324,0.013523,0.002678,0.000431,0.349646
3059000,0.0324,0.013523,0.002678,0.000431,0.349764
3060000,0.0324,0.013523,0.002678,0.000431,0.351879
3061000,0.0324,0.013523,0.002678,0.000431,0.357168
3062000,0.0324,0.013523,0.002678,0.000431,0.351057
3063000,0.0324,0.013523,0.002678,0.000431,0.344828
3064000,0.0324,0.013523,0.002678,0.000431,0.344945
3065000,0.0324,0.013523,0.002678,0.000431,0.351879
3066000,0.0324,0.013523,0.002678,0.000431,0.348824
3067000,0.0324,0.013523,0.002678,0.000431,0.354583
3068000,0.0324,0.013523,0.002678,0.000431,0.348941
3069000,0.0324,0.013523,0.002678,0.000431,0.350116
3070000,0.0324,0.013523,0.002678,0.000431,0.365160
3071000,0.0324,0.013523,0.002678,0.000431,0.370919
3072000,0.0324,0.013523,0.002678,0.000431,0.364807
3073000,0.0324,0.013523,0.002678,0.000431,0.355640
3074000,0.0324,0.013523,0.002678,0.000431,0.356581
3075000,0.0324,0.013523,0.002678,0.000431,0.361869
3076000,0.0324,0.013523,0.002678,0.000431,0.359636
3077000,0.0324,0.013523,0.002678,0.000431,0.351879
3078000,0.0324,0.013523,0.002678,0.000431,0.353172
3079000,0.0324,0.013523,0.002678,0.000431,0.348354
3080000,0.0324,0.013523,0.002678,0.000431,0.360812
3081000,0.0324,0.013523,0.002678,0.000431,0.375150
3082000,0.0324,0.013523,0.002678,0.000431,0.353877
3083000,0.0324,0.013523,0.002678,0.000431,0.347883
3084000,0.0324,0.013523,0.002678,0.000431,0.367981
3085000,0.0324,0.013523,0.002678,0.000431,0.349176
3086000,0.0324,0.013523,0.002678,0.000431,0.346826
3087000,0.0324,0.013523,0.002678,0.000431,0.348118
3088000,0.0324,0.013523,0.002678,0.000431,0.339656
3089000,0.0324,0.013523,0.002678,0.000431,0.364455
3090000,0.0324,0.013523,0.002678,0.000431,0.364102
3091000,0.0324,0.013523,0.002678,0.000431,0.355170
3092000,0.0324,0.013523,0.002678,0.000431,0.355875
3093000,0.0324,0.013523,0.002678,0.000431,0.343770
3094000,0.0324,0.013523,0.002678,0.000431,0.356463
3095000,0.0324,0.013523,0.002678,0.000431,0.352702
3096000,0.0324,0.013523,0.002678,0.000431,0.343652
3097000,0.0324,0.013523,0.002678,0.000431,0.343417
3098000,0.0324,0.013523,0.002678,0.000431,0.346120
3099000,0.0324,0.013523,0.002678,0.000431,0.330724
3100000,0.0324,0.013523,0.002678,0.000431,0.339069
3101000,0.0324,0.013523,0.002678,0.000431,0.348941
3102000,0.0324,0.013523,0.002678,0.000431,0.348706
3103000,0.0324,0.013523,0.002678,0.000431,0.342595
3104000,0.0324,0.013523,0.002678,0.000431,0.351292
3105000,0.0324,0.013523,0.002678,0.000431,0.355758
3106000,0.0324,0.013523,0.002678,0.000431,0.348706
3107000,0.0324,0.013523,0.002678,0.000431,0.359166
3108000,0.0324,0.013523,0.002678,0.000431,0.368451
3109000,0.0324,0.013523,0.002678,0.000431,0.363397
3110000,0.0324,0.013523,0.002678,0.000431,0.381614
3111000,0.0324,0.013523,0.002678,0.000431,0.356581
3112000,0.0324,0.013523,0.002678,0.000431,0.368216
3113000,0.0324,0.013523,0.002678,0.000431,0.366335
3114000,0.0324,0.013523,0.002678,0.000431,0.379499
3115000,0.0324,0.013523,0.002678,0.000431,0.365865
3116000,0.0324,0.013523,0.002678,0.000431,0.353877
3117000,0.0324,0.013523,0.002678,0.000431,0.368333
3118000,0.0324,0.013523,0.002678,0.000431,0.368098
3119000,0.0324,0.013523,0.002678,0.000431,0.373387
3120000,0.0324,0.013523,0.002678,0.000431,0.363985
3121000,0.0324,0.013523,0.002678,0.000431,0.368098
3122000,0.0324,0.013523,0.002678,0.000431,0.366218
3123000,0.0324,0.013523,0.002678,0.000431,0.359284
3124000,0.0324,0.013523,0.002678,0.000431,0.356816
3125000,0.0324,0.013523,0.002678,0.000431,0.356698
3126000,0.0324,0.013523,0.002678,0.000431,0.366688
3127000,0.0324,0.013523,0.002678,0.000431,0.357638
3128000,0.0324,0.013523,0.002678,0.000431,0.360224
3129000,0.0324,0.013523,0.002678,0.000431,0.348589
3130000,0.0324,0.013523,0.002678,0.000431,0.356110
3131000,0.0324,0.013523,0.002678,0.000431,0.351527
3132000,0.0324,0.013523,0.002678,0.000431,0.358108
3133000,0.0324,0.013523,0.002678,0.000431,0.353760
3134000,0.0324,0.013523,0.002678,0.000431,0.347178
3135000,0.0324,0.013523,0.002678,0.000431,0.334485
3136000,0.0324,0.013523,0.002678,0.000431,0.348941
3137000,0.0324,0.013523,0.002678,0.000431,0.353995
3138000,0.0324,0.013523,0.002678,0.000431,0.340832
3139000,0.0324,0.013523,0.002678,0.000431,0.347883
3140000,0.0324,0.013523,0.002678,0.000431,0.373270
3141000,0.0324,0.013523,0.002678,0.000431,0.375503
3142000,0.0324,0.013523,0.002678,0.000431,0.375973
3143000,0.0324,0.013523,0.002678,0.000431,0.367276
3144000,0.0324,0.013523,0.002678,0.000431,0.377736
3145000,0.0324,0.013523,0.002678,0.000431,0.369861
3146000,0.0324,0.013523,0.002678,0.000431,0.391956
3147000,0.0324,0.013523,0.002678,0.000431,0.406648
3148000,0.0324,0.013523,0.002678,0.000431,0.414169
3149000,0.0324,0.013523,0.002678,0.000431,0.403827
3150000,0.0324,0.013523,0.002678,0.000431,0.410056
3151000,0.0324,0.013523,0.002678,0.000431,0.408058
3152000,0.0324,0.013523,0.002678,0.000431,0.419576
3153000,0.0324,0.013523,0.002678,0.000431,0.428743
3154000,0.0324,0.013523,0.002678,0.000431,0.416990
3155000,0.0324,0.013523,0.002678,0.000431,0.418870
3156000,0.0324,0.013523,0.002678,0.000431,0.407940
3157000,0.0324,0.013523,0.002678,0.000431,0.425099
3158000,0.0324,0.013523,0.002678,0.000431,0.419105
3159000,0.0324,0.013523,0.002678,0.000431,0.416755
3160000,0.0324,0.013523,0.002678,0.000431,0.428978
3161000,0.0324,0.013523,0.002678,0.000431,0.425099
3162000,0.0324,0.013523,0.002678,0.000431,0.423101
3163000,0.0324,0.013523,0.002678,0.000431,0.430271
3164000,0.0324,0.013523,0.002678,0.000431,0.424982
3165000,0.0324,0.013523,0.002678,0.000431,0.439438
3166000,0.0324,0.013523,0.002678,0.000431,0.428390
3167000,0.0324,0.013523,0.002678,0.000431,0.440848
3168000,0.0324,0.013523,0.002678,0.000431,0.432386
3169000,0.0324,0.013523,0.002678,0.000431,0.444492
3170000,0.0324,0.013523,0.002678,0.000431,0.472816
3171000,0.0324,0.013523,0.002678,0.000431,0.465764
3172000,0.0324,0.013523,0.002678,0.000431,0.448605
3173000,0.0324,0.013523,0.002678,0.000431,0.470465
3174000,0.0324,0.013523,0.002678,0.000431,0.477635
3175000,0.0324,0.013523,0.002678,0.000431,0.511248
3176000,0.0324,0.013523,0.002678,0.000431,0.501258
3177000,0.0324,0.013523,0.002678,0.000431,0.492678
3178000,0.0324,0.013523,0.002678,0.000431,0.494324
3179000,0.0324,0.013523,0.002678,0.000431,0.491973
3180000,0.0324,0.013523,0.002678,0.000431,0.489975
3181000,0.0324,0.013523,0.002678,0.000431,0.510542
3182000,0.0324,0.013523,0.002678,0.000431,0.519240
3183000,0.0324,0.013523,0.002678,0.000431,0.502433
3184000,0.0324,0.013523,0.002678,0.000431,0.512658
3185000,0.0324,0.013523,0.002678,0.000431,0.507017
3186000,0.0324,0.013523,0.002678,0.000431,0.498437
3187000,0.0324,0.013523,0.002678,0.000431,0.516889
3188000,0.0324,0.013523,0.002678,0.000431,0.513128
3189000,0.0324,0.013523,0.002678,0.000431,0.520415
3190000,0.0324,0.013523,0.002678,0.000431,0.523941
3191000,0.0324,0.013523,0.002678,0.000431,0.521825
3192000,0.0324,0.013523,0.002678,0.000431,0.548269
3193000,0.0324,0.013523,0.002678,0.000431,0.537221
3194000,0.0324,0.013523,0.002678,0.000431,0.545918
3195000,0.0324,0.013523,0.002678,0.000431,0.534636
3196000,0.0324,0.013523,0.002678,0.000431,0.528172
3197000,0.0324,0.013523,0.002678,0.000431,0.528172
3198000,0.0324,0.013523,0.002678,0.000431,0.525939
3199000,0.0324,0.013523,0.002678,0.000431,0.532873
3200000,0.0324,0.013523,0.002678,0.000431,0.524998
3201000,0.0324,0.013523,0.002678,0.000431,0.542628
3202000,0.0324,0.013523,0.002678,0.000431,0.520650
3203000,0.0324,0.013523,0.002678,0.000431,0.516536
3204000,0.0324,0.013523,0.002678,0.000431,0.525586
3205000,0.0324,0.013523,0.002678,0.000431,0.529817
3206000,0.0324,0.013523,0.002678,0.000431,0.538867
3207000,0.0324,0.013523,0.002678,0.000431,0.538867
3208000,0.0324,0.013523,0.002678,0.000431,0.532638
3209000,0.0324,0.013523,0.002678,0.000431,0.527349
3210000,0.0324,0.013523,0.002678,0.000431,0.529464
3211000,0.0324,0.013523,0.002678,0.000431,0.541100
3212000,0.0324,0.013523,0.002678,0.000431,0.540630
3213000,0.0324,0.013523,0.002678,0.000431,0.539337
3214000,0.0324,0.013523,0.002678,0.000431,0.539924
3215000,0.0324,0.013523,0.002678,0.000431,0.547916
3216000,0.0324,0.013523,0.002678,0.000431,0.544626
3217000,0.0324,0.013523,0.002678,0.000431,0.544273
3218000,0.0324,0.013523,0.002678,0.000431,0.533931
3219000,0.0324,0.013523,0.002678,0.000431,0.537574
3220000,0.0324,0.013523,0.002678,0.000431,0.531110
3221000,0.0324,0.013523,0.002678,0.000431,0.519945
3222000,0.0324,0.013523,0.002678,0.000431,0.540160
3223000,0.0324,0.013523,0.002678,0.000431,0.533578
3224000,0.0324,0.013523,0.002678,0.000431,0.530757
3225000,0.0324,0.013523,0.002678,0.000431,0.528407
3226000,0.0324,0.013523,0.002678,0.000431,0.526879
3227000,0.0324,0.013523,0.002678,0.000431,0.516066
3228000,0.0324,0.013523,0.002678,0.000431,0.513011
3229000,0.0324,0.013523,0.002678,0.000431,0.530405
3230000,0.0324,0.013523,0.002678,0.000431,0.519592
3231000,0.0324,0.013523,0.002678,0.000431,0.536164
3232000,0.0324,0.013523,0.002678,0.000431,0.533225
3233000,0.0324,0.013523,0.002678,0.000431,0.544626
3234000,0.0324,0.013523,0.002678,0.000431,0.546389
3235000,0.0324,0.013523,0.002678,0.000431,0.535223
3236000,0.0324,0.013523,0.002678,0.000431,0.533108
3237000,0.0324,0.013523,0.002678,0.000431,0.535458
3238000,0.0324,0.013523,0.002678,0.000431,0.548504
3239000,0.0324,0.013523,0.002678,0.000431,0.537104
3240000,0.0324,0.013523,0.002678,0.000431,0.522060
3241000,0.0324,0.013523,0.002678,0.000431,0.539337
3242000,0.0324,0.013523,0.002678,0.000431,0.539689
3243000,0.0324,0.013523,0.002678,0.000431,0.543685
3244000,0.0324,0.013523,0.002678,0.000431,0.544508
3245000,0.0324,0.013523,0.002678,0.000431,0.534518
3246000,0.0324,0.013523,0.002678,0.000431,0.541687
3247000,0.0324,0.013523,0.002678,0.000431,0.536634
3248000,0.0324,0.013523,0.002678,0.000431,0.530757
3249000,0.0324,0.013523,0.002678,0.000431,0.523235
3250000,0.0324,0.013523,0.002678,0.000431,0.528172
3251000,0.0324,0.013523,0.002678,0.000431,0.524293
3252000,0.0324,0.013523,0.002678,0.000431,0.530405
3253000,0.0324,0.013523,0.002678,0.000431,0.524176
3254000,0.0324,0.013523,0.002678,0.000431,0.518299
3255000,0.0324,0.013523,0.002678,0.000431,0.508074
3256000,0.0324,0.013523,0.002678,0.000431,0.518887
3257000,0.0324,0.013523,0.002678,0.000431,0.505606
3258000,0.0324,0.013523,0.002678,0.000431,0.522413
3259000,0.0324,0.013523,0.002678,0.000431,0.492913
3260000,0.0324,0.013523,0.002678,0.000431,0.498319
3261000,0.0324,0.013523,0.002678,0.000431,0.496439
3262000,0.0324,0.013523,0.002678,0.000431,0.495851
3263000,0.0324,0.013523,0.002678,0.000431,0.489387
3264000,0.0324,0.013523,0.002678,0.000431,0.496086
3265000,0.0324,0.013523,0.002678,0.000431,0.499025
3266000,0.0324,0.013523,0.002678,0.000431,0.516184
3267000,0.0324,0.013523,0.002678,0.000431,0.497967
3268000,0.0324,0.013523,0.002678,0.000431,0.495616
3269000,0.0324,0.013523,0.002678,0.000431,0.500317
3270000,0.0324,0.013523,0.002678,0.000431,0.503491
3271000,0.0324,0.013523,0.002678,0.000431,0.493971
3272000,0.0324,0.013523,0.002678,0.000431,0.504196
3273000,0.0324,0.013523,0.002678,0.000431,0.495381
3274000,0.0324,0.013523,0.002678,0.000431,0.498790
3275000,0.0324,0.013523,0.002678,0.000431,0.502198
3276000,0.0324,0.013523,0.002678,0.000431,0.479162
3277000,0.0324,0.013523,0.002678,0.000431,0.467645
3278000,0.0324,0.013523,0.002678,0.000431,0.481513
3279000,0.0324,0.013523,0.002678,0.000431,0.477635
3280000,0.0324,0.013523,0.002678,0.000431,0.484569
3281000,0.0324,0.013523,0.002678,0.000431,0.491503
3282000,0.0324,0.013523,0.002678,0.000431,0.481630
3283000,0.0324,0.013523,0.002678,0.000431,0.478340
3284000,0.0324,0.013523,0.002678,0.000431,0.461416
3285000,0.0324,0.013523,0.002678,0.000431,0.482218
3286000,0.0324,0.013523,0.002678,0.000431,0.476342
3287000,0.0324,0.013523,0.002678,0.000431,0.464001
3288000,0.0324,0.013523,0.002678,0.000431,0.478222
3289000,0.0324,0.013523,0.002678,0.000431,0.471758
3290000,0.0324,0.013523,0.002678,0.000431,0.481160
3291000,0.0324,0.013523,0.002678,0.000431,0.467762
3292000,0.0324,0.013523,0.002678,0.000431,0.466822
3293000,0.0324,0.013523,0.002678,0.000431,0.462591
3294000,0.0324,0.013523,0.002678,0.000431,0.468937
3295000,0.0324,0.013523,0.002678,0.000431,0.463766
3296000,0.0324,0.013523,0.002678,0.000431,0.462826
3297000,0.0324,0.013523,0.002678,0.000431,0.447077
3298000,0.0324,0.013523,0.002678,0.000431,0.455187
3299000,0.0324,0.013523,0.002678,0.000431,0.456715
3300000,0.0324,0.013523,0.002678,0.000431,0.459535
3301000,0.0324,0.013523,0.002678,0.000431,0.458477
3302000,0.0324,0.013523,0.002678,0.000431,0.462003
3303000,0.0324,0.013523,0.002678,0.000431,0.461181
3304000,0.0324,0.013523,0.002678,0.000431,0.473168
3305000,0.0324,0.013523,0.002678,0.000431,0.471876
3306000,0.0324,0.013523,0.002678,0.000431,0.455657
3307000,0.0324,0.013523,0.002678,0.000431,0.453659
3308000,0.0324,0.013523,0.002678,0.000431,0.446842
3309000,0.0324,0.013523,0.002678,0.000431,0.449545
3310000,0.0324,0.013523,0.002678,0.000431,0.457067
3311000,0.0324,0.013523,0.002678,0.000431,0.441906
3312000,0.0324,0.013523,0.002678,0.000431,0.448958
3313000,0.0324,0.013523,0.002678,0.000431,0.434619
3314000,0.0324,0.013523,0.002678,0.000431,0.431916
3315000,0.0324,0.013523,0.002678,0.000431,0.431446
3316000,0.0324,0.013523,0.002678,0.000431,0.431093
3317000,0.0324,0.013523,0.002678,0.000431,0.430153
3318000,0.0324,0.013523,0.002678,0.000431,0.420986
3319000,0.0324,0.013523,0.002678,0.000431,0.439790
3320000,0.0324,0.013523,0.002678,0.000431,0.441083
3321000,0.0324,0.013523,0.002678,0.000431,0.436500
3322000,0.0324,0.013523,0.002678,0.000431,0.443551
3323000,0.0324,0.013523,0.002678,0.000431,0.439438
3324000,0.0324,0.013523,0.002678,0.000431,0.434267
3325000,0.0324,0.013523,0.002678,0.000431,0.416637
3326000,0.0324,0.013523,0.002678,0.000431,0.429683
3327000,0.0324,0.013523,0.002678,0.000431,0.427215
3328000,0.0324,0.013523,0.002678,0.000431,0.422514
3329000,0.0324,0.013523,0.002678,0.000431,0.427920
3330000,0.0324,0.013523,0.002678,0.000431,0.438028
3331000,0.0324,0.013523,0.002678,0.000431,0.435442
3332000,0.0324,0.013523,0.002678,0.000431,0.427685
3333000,0.0324,0.013523,0.002678,0.000431,0.432621
3334000,0.0324,0.013523,0.002678,0.000431,0.410996
3335000,0.0324,0.013523,0.002678,0.000431,0.423807
3336000,0.0324,0.013523,0.002678,0.000431,0.423572
3337000,0.0324,0.013523,0.002678,0.000431,0.425217
3338000,0.0324,0.013523,0.002678,0.000431,0.413229
3339000,0.0324,0.013523,0.002678,0.000431,0.411701
3340000,0.0324,0.013523,0.002678,0.000431,0.411819
3341000,0.0324,0.013523,0.002678,0.000431,0.423454
3342000,0.0324,0.013523,0.002678,0.000431,0.419928
3343000,0.0324,0.013523,0.002678,0.000431,0.404297
3344000,0.0324,0.013523,0.002678,0.000431,0.416990
3345000,0.0324,0.013523,0.002678,0.000431,0.402769
3346000,0.0324,0.013523,0.002678,0.000431,0.408528
3347000,0.0324,0.013523,0.002678,0.000431,0.406883
3348000,0.0324,0.013523,0.002678,0.000431,0.427920
3349000,0.0324,0.013523,0.002678,0.000431,0.404650
3350000,0.0324,0.013523,0.002678,0.000431,0.419928
3351000,0.0324,0.013523,0.002678,0.000431,0.411584
3352000,0.0324,0.013523,0.002678,0.000431,0.406765
3353000,0.0324,0.013523,0.002678,0.000431,0.402652
3354000,0.0324,0.013523,0.002678,0.000431,0.408645
3355000,0.0324,0.013523,0.002678,0.000431,0.397715
3356000,0.0324,0.013523,0.002678,0.000431,0.393014
3357000,0.0324,0.013523,0.002678,0.000431,0.390311
3358000,0.0324,0.013523,0.002678,0.000431,0.413112
3359000,0.0324,0.013523,0.002678,0.000431,0.397833
3360000,0.0324,0.013523,0.002678,0.000431,0.395482
3361000,0.0324,0.013523,0.002678,0.000431,0.403709
3362000,0.0324,0.013523,0.002678,0.000431,0.413229
3363000,0.0324,0.013523,0.002678,0.000431,0.414052
3364000,0.0324,0.013523,0.002678,0.000431,0.412289
3365000,0.0324,0.013523,0.002678,0.000431,0.413934
3366000,0.0324,0.013523,0.002678,0.000431,0.399008
3367000,0.0324,0.013523,0.002678,0.000431,0.393719
3368000,0.0324,0.013523,0.002678,0.000431,0.391134
3369000,0.0324,0.013523,0.002678,0.000431,0.395247
3370000,0.0324,0.013523,0.002678,0.000431,0.397598
3371000,0.0324,0.013523,0.002678,0.000431,0.395835
3372000,0.0324,0.013523,0.002678,0.000431,0.420516
3373000,0.0324,0.013523,0.002678,0.000431,0.412171
3374000,0.0324,0.013523,0.002678,0.000431,0.397950
3375000,0.0324,0.013523,0.002678,0.000431,0.405355
3376000,0.0324,0.013523,0.002678,0.000431,0.407823
3377000,0.0324,0.013523,0.002678,0.000431,0.400301
3378000,0.0324,0.013523,0.002678,0.000431,0.389841
3379000,0.0324,0.013523,0.002678,0.000431,0.378206
3380000,0.0324,0.013523,0.002678,0.000431,0.398656
3381000,0.0324,0.013523,0.002678,0.000431,0.403004
3382000,0.0324,0.013523,0.002678,0.000431,0.396070
3383000,0.0324,0.013523,0.002678,0.000431,0.392427
3384000,0.0324,0.013523,0.002678,0.000431,0.382437
3385000,0.0324,0.013523,0.002678,0.000431,0.377736
3386000,0.0324,0.013523,0.002678,0.000431,0.386080
3387000,0.0324,0.013523,0.002678,0.000431,0.381614
3388000,0.0324,0.013523,0.002678,0.000431,0.379616
3389000,0.0324,0.013523,0.002678,0.000431,0.388313
3390000,0.0324,0.013523,0.002678,0.000431,0.390194
3391000,0.0324,0.013523,0.002678,0.000431,0.414757
3392000,0.0324,0.013523,0.002678,0.000431,0.404650
3393000,0.0324,0.013523,0.002678,0.000431,0.396893
3394000,0.0324,0.013523,0.002678,0.000431,0.414522
3395000,0.0324,0.013523,0.002678,0.000431,0.390781
3396000,0.0324,0.013523,0.002678,0.000431,0.395247
3397000,0.0324,0.013523,0.002678,0.000431,0.393132
3398000,0.0324,0.013523,0.002678,0.000431,0.401476
3399000,0.0324,0.013523,0.002678,0.000431,0.387843
3400000,0.0324,0.013523,0.002678,0.000431,0.392779
3401000,0.0324,0.013523,0.002678,0.000431,0.399713
3402000,0.0324,0.013523,0.002678,0.000431,0.406177
3403000,0.0324,0.013523,0.002678,0.000431,0.416520
3404000,0.0324,0.013523,0.002678,0.000431,0.411466
3405000,0.0324,0.013523,0.002678,0.000431,0.401946
3406000,0.0324,0.013523,0.002678,0.000431,0.413934
3407000,0.0324,0.013523,0.002678,0.000431,0.429213
3408000,0.0324,0.013523,0.002678,0.000431,0.429683
3409000,0.0324,0.013523,0.002678,0.000431,0.415110
3410000,0.0324,0.013523,0.002678,0.000431,0.434972
3411000,0.0324,0.013523,0.002678,0.000431,0.436030
3412000,0.0324,0.013523,0.002678,0.000431,0.422279
3413000,0.0324,0.013523,0.002678,0.000431,0.420986
3414000,0.0324,0.013523,0.002678,0.000431,0.432856
3415000,0.0324,0.013523,0.002678,0.000431,0.438968
3416000,0.0324,0.013523,0.002678,0.000431,0.450486
3417000,0.0324,0.013523,0.002678,0.000431,0.453776
3418000,0.0324,0.013523,0.002678,0.000431,0.459065
3419000,0.0324,0.013523,0.002678,0.000431,0.479162
3420000,0.0324,0.013523,0.002678,0.000431,0.458360
3421000,0.0324,0.013523,0.002678,0.000431,0.460593
3422000,0.0324,0.013523,0.002678,0.000431,0.467880
3423000,0.0324,0.013523,0.002678,0.000431,0.464589
3424000,0.0324,0.013523,0.002678,0.000431,0.493031
3425000,0.0324,0.013523,0.002678,0.000431,0.481043
3426000,0.0324,0.013523,0.002678,0.000431,0.501493
3427000,0.0324,0.013523,0.002678,0.000431,0.485391
3428000,0.0324,0.013523,0.002678,0.000431,0.491385
3429000,0.0324,0.013523,0.002678,0.000431,0.487977
3430000,0.0324,0.013523,0.002678,0.000431,0.497849
3431000,0.0324,0.013523,0.002678,0.000431,0.481043
3432000,0.0324,0.013523,0.002678,0.000431,0.488330
3433000,0.0324,0.013523,0.002678,0.000431,0.470935
3434000,0.0324,0.013523,0.002678,0.000431,0.476342
3435000,0.0324,0.013523,0.002678,0.000431,0.485509
3436000,0.0324,0.013523,0.002678,0.000431,0.503608
3437000,0.0324,0.013523,0.002678,0.000431,0.493031
3438000,0.0324,0.013523,0.002678,0.000431,0.508780
3439000,0.0324,0.013523,0.002678,0.000431,0.500905
3440000,0.0324,0.013523,0.002678,0.000431,0.493266
3441000,0.0324,0.013523,0.002678,0.000431,0.496674
3442000,0.0324,0.013523,0.002678,0.000431,0.517594
3443000,0.0324,0.013523,0.002678,0.000431,0.518299
3444000,0.0324,0.013523,0.002678,0.000431,0.520180
3445000,0.0324,0.013523,0.002678,0.000431,0.524998
3446000,0.0324,0.013523,0.002678,0.000431,0.526409
3447000,0.0324,0.013523,0.002678,0.000431,0.519357
3448000,0.0324,0.013523,0.002678,0.000431,0.533460
3449000,0.0324,0.013523,0.002678,0.000431,0.530405
3450000,0.0324,0.013523,0.002678,0.000431,0.528054
3451000,0.0324,0.013523,0.002678,0.000431,0.525233
3452000,0.0324,0.013523,0.002678,0.000431,0.534048
3453000,0.0324,0.013523,0.002678,0.000431,0.544391
3454000,0.0324,0.013523,0.002678,0.000431,0.549444
3455000,0.0324,0.013523,0.002678,0.000431,0.544508
3456000,0.0324,0.013523,0.002678,0.000431,0.535811
3457000,0.0324,0.013523,0.002678,0.000431,0.558141
3458000,0.0324,0.013523,0.002678,0.000431,0.542275
3459000,0.0324,0.013523,0.002678,0.000431,0.543333
3460000,0.0324,0.013523,0.002678,0.000431,0.544978
3461000,0.0324,0.013523,0.002678,0.000431,0.532990
3462000,0.0324,0.013523,0.002678,0.000431,0.539102
3463000,0.0324,0.013523,0.002678,0.000431,0.558847
3464000,0.0324,0.013523,0.002678,0.000431,0.569542
3465000,0.0324,0.013523,0.002678,0.000431,0.571304
3466000,0.0324,0.013523,0.002678,0.000431,0.568014
3467000,0.0324,0.013523,0.002678,0.000431,0.576476
3468000,0.0324,0.013523,0.002678,0.000431,0.569659
3469000,0.0324,0.013523,0.002678,0.000431,0.568366
3470000,0.0324,0.013523,0.002678,0.000431,0.565781
3471000,0.0324,0.013523,0.002678,0.000431,0.569071
3472000,0.0324,0.013523,0.002678,0.000431,0.557319
3473000,0.0324,0.013523,0.002678,0.000431,0.579649
3474000,0.0324,0.013523,0.002678,0.000431,0.576241
3475000,0.0324,0.013523,0.002678,0.000431,0.610206
3476000,0.0324,0.013523,0.002678,0.000431,0.582470
3477000,0.0324,0.013523,0.002678,0.000431,0.589756
3478000,0.0324,0.013523,0.002678,0.000431,0.590932
3479000,0.0324,0.013523,0.002678,0.000431,0.606328
3480000,0.0324,0.013523,0.002678,0.000431,0.640411
3481000,0.0324,0.013523,0.002678,0.000431,0.627365
3482000,0.0324,0.013523,0.002678,0.000431,0.628541
3483000,0.0324,0.013523,0.002678,0.000431,0.645112
3484000,0.0324,0.013523,0.002678,0.000431,0.629834
3485000,0.0324,0.013523,0.002678,0.000431,0.634300
3486000,0.0324,0.013523,0.002678,0.000431,0.664034
3487000,0.0324,0.013523,0.002678,0.000431,0.671556
3488000,0.0324,0.013523,0.002678,0.000431,0.653927
3489000,0.0324,0.013523,0.002678,0.000431,0.660273
3490000,0.0324,0.013523,0.002678,0.000431,0.633477
3491000,0.0324,0.013523,0.002678,0.000431,0.662271
3492000,0.0324,0.013523,0.002678,0.000431,0.639588
3493000,0.0324,0.013523,0.002678,0.000431,0.663682
3494000,0.0324,0.013523,0.002678,0.000431,0.653574
3495000,0.0324,0.013523,0.002678,0.000431,0.646758
3496000,0.0324,0.013523,0.002678,0.000431,0.660273
3497000,0.0324,0.013523,0.002678,0.000431,0.662036
3498000,0.0324,0.013523,0.002678,0.000431,0.666150
3499000,0.0324,0.013523,0.002678,0.000431,0.660038
3500000,0.0324,0.013523,0.002678,0.000431,0.666855
3501000,0.0324,0.013523,0.002678,0.000431,0.692241
3502000,0.0324,0.013523,0.002678,0.000431,0.701173
3503000,0.0324,0.013523,0.002678,0.000431,0.723503
3504000,0.0324,0.013523,0.002678,0.000431,0.714336
3505000,0.0324,0.013523,0.002678,0.000431,0.721858
3506000,0.0324,0.013523,0.002678,0.000431,0.738195
3507000,0.0324,0.013523,0.002678,0.000431,0.714806
3508000,0.0324,0.013523,0.002678,0.000431,0.734316
3509000,0.0324,0.013523,0.002678,0.000431,0.742543
3510000,0.0324,0.013523,0.002678,0.000431,0.745716
3511000,0.0324,0.013523,0.002678,0.000431,0.747949
3512000,0.0324,0.013523,0.002678,0.000431,0.749360
3513000,0.0324,0.013523,0.002678,0.000431,0.754061
3514000,0.0324,0.013523,0.002678,0.000431,0.738077
3515000,0.0324,0.013523,0.002678,0.000431,0.751123
3516000,0.0324,0.013523,0.002678,0.000431,0.749125
3517000,0.0324,0.013523,0.002678,0.000431,0.748184
3518000,0.0324,0.013523,0.002678,0.000431,0.735609
3519000,0.0324,0.013523,0.002678,0.000431,0.737019
3520000,0.0324,0.013523,0.002678,0.000431,0.734786
3521000,0.0324,0.013523,0.002678,0.000431,0.717157
3522000,0.0324,0.013523,0.002678,0.000431,0.729850
3523000,0.0324,0.013523,0.002678,0.000431,0.717274
3524000,0.0324,0.013523,0.002678,0.000431,0.731260
3525000,0.0324,0.013523,0.002678,0.000431,0.736784
3526000,0.0324,0.013523,0.002678,0.000431,0.725619
3527000,0.0324,0.013523,0.002678,0.000431,0.728440
3528000,0.0324,0.013523,0.002678,0.000431,0.749360
3529000,0.0324,0.013523,0.002678,0.000431,0.730085
3530000,0.0324,0.013523,0.002678,0.000431,0.721976
3531000,0.0324,0.013523,0.002678,0.000431,0.719155
3532000,0.0324,0.013523,0.002678,0.000431,0.729850
3533000,0.0324,0.013523,0.002678,0.000431,0.709635
3534000,0.0324,0.013523,0.002678,0.000431,0.710928
3535000,0.0324,0.013523,0.002678,0.000431,0.727029
3536000,0.0324,0.013523,0.002678,0.000431,0.711046
3537000,0.0324,0.013523,0.002678,0.000431,0.736902
3538000,0.0324,0.013523,0.002678,0.000431,0.702231
3539000,0.0324,0.013523,0.002678,0.000431,0.699528
3540000,0.0324,0.013523,0.002678,0.000431,0.704817
3541000,0.0324,0.013523,0.002678,0.000431,0.697882
3542000,0.0324,0.013523,0.002678,0.000431,0.713866
3543000,0.0324,0.013523,0.002678,0.000431,0.685894
3544000,0.0324,0.013523,0.002678,0.000431,0.705992
3545000,0.0324,0.013523,0.002678,0.000431,0.686835
3546000,0.0324,0.013523,0.002678,0.000431,0.699528
3547000,0.0324,0.013523,0.002678,0.000431,0.701643
3548000,0.0324,0.013523,0.002678,0.000431,0.703994
3549000,0.0324,0.013523,0.002678,0.000431,0.708107
3550000,0.0324,0.013523,0.002678,0.000431,0.682134
3551000,0.0324,0.013523,0.002678,0.000431,0.688245
3552000,0.0324,0.013523,0.002678,0.000431,0.685542
3553000,0.0324,0.013523,0.002678,0.000431,0.690478
3554000,0.0324,0.013523,0.002678,0.000431,0.687422
3555000,0.0324,0.013523,0.002678,0.000431,0.659803
3556000,0.0324,0.013523,0.002678,0.000431,0.689538
3557000,0.0324,0.013523,0.002678,0.000431,0.678843
3558000,0.0324,0.013523,0.002678,0.000431,0.666972
3559000,0.0324,0.013523,0.002678,0.000431,0.657335
3560000,0.0324,0.013523,0.002678,0.000431,0.646758
3561000,0.0324,0.013523,0.002678,0.000431,0.657100
3562000,0.0324,0.013523,0.002678,0.000431,0.651576
3563000,0.0324,0.013523,0.002678,0.000431,0.652634
3564000,0.0324,0.013523,0.002678,0.000431,0.637708
3565000,0.0324,0.013523,0.002678,0.000431,0.631714
3566000,0.0324,0.013523,0.002678,0.000431,0.621607
3567000,0.0324,0.013523,0.002678,0.000431,0.629246
3568000,0.0324,0.013523,0.002678,0.000431,0.620314
3569000,0.0324,0.013523,0.002678,0.000431,0.624662
3570000,0.0324,0.013523,0.002678,0.000431,0.641116
3571000,0.0324,0.013523,0.002678,0.000431,0.643702
3572000,0.0324,0.013523,0.002678,0.000431,0.621136
3573000,0.0324,0.013523,0.002678,0.000431,0.631949
3574000,0.0324,0.013523,0.002678,0.000431,0.637590
3575000,0.0324,0.013523,0.002678,0.000431,0.639823
3576000,0.0324,0.013523,0.002678,0.000431,0.627130
3577000,0.0324,0.013523,0.002678,0.000431,0.629011
3578000,0.0324,0.013523,0.002678,0.000431,0.619374
3579000,0.0324,0.013523,0.002678,0.000431,0.621724
3580000,0.0324,0.013523,0.002678,0.000431,0.624427
3581000,0.0324,0.013523,0.002678,0.000431,0.619609
3582000,0.0324,0.013523,0.002678,0.000431,0.601039
3583000,0.0324,0.013523,0.002678,0.000431,0.595398
3584000,0.0324,0.013523,0.002678,0.000431,0.608914
3585000,0.0324,0.013523,0.002678,0.000431,0.600099
3586000,0.0324,0.013523,0.002678,0.000431,0.594810
3587000,0.0324,0.013523,0.002678,0.000431,0.590109
3588000,0.0324,0.013523,0.002678,0.000431,0.582235
3589000,0.0324,0.013523,0.002678,0.000431,0.582117
3590000,0.0324,0.013523,0.002678,0.000431,0.573538
3591000,0.0324,0.013523,0.002678,0.000431,0.563313
3592000,0.0324,0.013523,0.002678,0.000431,0.560492
3593000,0.0324,0.013523,0.002678,0.000431,0.550972
3594000,0.0324,0.013523,0.002678,0.000431,0.552853
3595000,0.0324,0.013523,0.002678,0.000431,0.543333
3596000,0.0324,0.013523,0.002678,0.000431,0.528994
3597000,0.0324,0.013523,0.002678,0.000431,0.527466
3598000,0.0324,0.013523,0.002678,0.000431,0.536986
3599000,0.0324,0.013523,0.002678,0.000431,0.531227
3600000,0.0324,0.013523,0.002678,0.000431,0.525351
3601000,0.0324,0.013523,0.002678,0.000431,0.528642
3602000,0.0324,0.013523,0.002678,0.000431,0.532638
3603000,0.0324,0.013523,0.002678,0.000431,0.543568
3604000,0.0324,0.013523,0.002678,0.000431,0.546389
3605000,0.0324,0.013523,0.002678,0.000431,0.524998
3606000,0.0324,0.013523,0.002678,0.000431,0.529935
3607000,0.0324,0.013523,0.002678,0.000431,0.528172
3608000,0.0324,0.013523,0.002678,0.000431,0.520532
3609000,0.0324,0.013523,0.002678,0.000431,0.530052
3610000,0.0324,0.013523,0.002678,0.000431,0.540395
3611000,0.0324,0.013523,0.002678,0.000431,0.558964
3612000,0.0324,0.013523,0.002678,0.000431,0.522883
3613000,0.0324,0.013523,0.002678,0.000431,0.530522
3614000,0.0324,0.013523,0.002678,0.000431,0.543215
3615000,0.0324,0.013523,0.002678,0.000431,0.539102
3616000,0.0324,0.013523,0.002678,0.000431,0.527937
3617000,0.0324,0.013523,0.002678,0.000431,0.528289
3618000,0.0324,0.013523,0.002678,0.000431,0.527702
3619000,0.0324,0.013523,0.002678,0.000431,0.522413
3620000,0.0324,0.013523,0.002678,0.000431,0.510542
3621000,0.0324,0.013523,0.002678,0.000431,0.515596
3622000,0.0324,0.013523,0.002678,0.000431,0.507957
3623000,0.0324,0.013523,0.002678,0.000431,0.512188
3624000,0.0324,0.013523,0.002678,0.000431,0.491033
3625000,0.0324,0.013523,0.002678,0.000431,0.488682
3626000,0.0324,0.013523,0.002678,0.000431,0.488212
3627000,0.0324,0.013523,0.002678,0.000431,0.487624
3628000,0.0324,0.013523,0.002678,0.000431,0.494206
3629000,0.0324,0.013523,0.002678,0.000431,0.498907
3630000,0.0324,0.013523,0.002678,0.000431,0.489387
3631000,0.0324,0.013523,0.002678,0.000431,0.474344
3632000,0.0324,0.013523,0.002678,0.000431,0.469995
3633000,0.0324,0.013523,0.002678,0.000431,0.458948
3634000,0.0324,0.013523,0.002678,0.000431,0.462826
3635000,0.0324,0.013523,0.002678,0.000431,0.459653
3636000,0.0324,0.013523,0.002678,0.000431,0.454011
3637000,0.0324,0.013523,0.002678,0.000431,0.470465
3638000,0.0324,0.013523,0.002678,0.000431,0.455187
3639000,0.0324,0.013523,0.002678,0.000431,0.465294
3640000,0.0324,0.013523,0.002678,0.000431,0.469173
3641000,0.0324,0.013523,0.002678,0.000431,0.471288
3642000,0.0324,0.013523,0.002678,0.000431,0.457537
3643000,0.0324,0.013523,0.002678,0.000431,0.455774
3644000,0.0324,0.013523,0.002678,0.000431,0.459418
3645000,0.0324,0.013523,0.002678,0.000431,0.447900
3646000,0.0324,0.013523,0.002678,0.000431,0.464354
3647000,0.0324,0.013523,0.002678,0.000431,0.457655
3648000,0.0324,0.013523,0.002678,0.000431,0.433326
3649000,0.0324,0.013523,0.002678,0.000431,0.440848
3650000,0.0324,0.013523,0.002678,0.000431,0.440261
3651000,0.0324,0.013523,0.002678,0.000431,0.442729
3652000,0.0324,0.013523,0.002678,0.000431,0.436147
3653000,0.0324,0.013523,0.002678,0.000431,0.435677
3654000,0.0324,0.013523,0.002678,0.000431,0.449545
3655000,0.0324,0.013523,0.002678,0.000431,0.453189
3656000,0.0324,0.013523,0.002678,0.000431,0.442141
3657000,0.0324,0.013523,0.002678,0.000431,0.433561
3658000,0.0324,0.013523,0.002678,0.000431,0.435677
3659000,0.0324,0.013523,0.002678,0.000431,0.422279
3660000,0.0324,0.013523,0.002678,0.000431,0.432034
3661000,0.0324,0.013523,0.002678,0.000431,0.429330
3662000,0.0324,0.013523,0.002678,0.000431,0.435324
3663000,0.0324,0.013523,0.002678,0.000431,0.429330
3664000,0.0324,0.013523,0.002678,0.000431,0.437675
3665000,0.0324,0.013523,0.002678,0.000431,0.456479
3666000,0.0324,0.013523,0.002678,0.000431,0.453776
3667000,0.0324,0.013523,0.002678,0.000431,0.461886
3668000,0.0324,0.013523,0.002678,0.000431,0.490328
3669000,0.0324,0.013523,0.002678,0.000431,0.474579
3670000,0.0324,0.013523,0.002678,0.000431,0.468702
3671000,0.0324,0.013523,0.002678,0.000431,0.465529
3672000,0.0324,0.013523,0.002678,0.000431,0.478222
3673000,0.0324,0.013523,0.002678,0.000431,0.477870
3674000,0.0324,0.013523,0.002678,0.000431,0.477164
3675000,0.0324,0.013523,0.002678,0.000431,0.462826
3676000,0.0324,0.013523,0.002678,0.000431,0.464824
3677000,0.0324,0.013523,0.002678,0.000431,0.458007
3678000,0.0324,0.013523,0.002678,0.000431,0.485744
3679000,0.0324,0.013523,0.002678,0.000431,0.483041
3680000,0.0324,0.013523,0.002678,0.000431,0.461416
3681000,0.0324,0.013523,0.002678,0.000431,0.460240
3682000,0.0324,0.013523,0.002678,0.000431,0.469173
3683000,0.0324,0.013523,0.002678,0.000431,0.489270
3684000,0.0324,0.013523,0.002678,0.000431,0.473874
3685000,0.0324,0.013523,0.002678,0.000431,0.494324
3686000,0.0324,0.013523,0.002678,0.000431,0.504784
3687000,0.0324,0.013523,0.002678,0.000431,0.494324
3688000,0.0324,0.013523,0.002678,0.000431,0.496909
3689000,0.0324,0.013523,0.002678,0.000431,0.512305
3690000,0.0324,0.013523,0.002678,0.000431,0.498437
3691000,0.0324,0.013523,0.002678,0.000431,0.491503
3692000,0.0324,0.013523,0.002678,0.000431,0.494088
3693000,0.0324,0.013523,0.002678,0.000431,0.508309
3694000,0.0324,0.013523,0.002678,0.000431,0.530992
3695000,0.0324,0.013523,0.002678,0.000431,0.530522
3696000,0.0324,0.013523,0.002678,0.000431,0.510425
3697000,0.0324,0.013523,0.002678,0.000431,0.519122
3698000,0.0324,0.013523,0.002678,0.000431,0.516066
3699000,0.0324,0.013523,0.002678,0.000431,0.520650
3700000,0.0324,0.013523,0.002678,0.000431,0.514421
3701000,0.0324,0.013523,0.002678,0.000431,0.529464
3702000,0.0324,0.013523,0.002678,0.000431,0.529347
3703000,0.0324,0.013523,0.002678,0.000431,0.533695
3704000,0.0324,0.013523,0.002678,0.000431,0.526409
3705000,0.0324,0.013523,0.002678,0.000431,0.527819
3706000,0.0324,0.013523,0.002678,0.000431,0.540395
3707000,0.0324,0.013523,0.002678,0.000431,0.529229
3708000,0.0324,0.013523,0.002678,0.000431,0.526409
3709000,0.0324,0.013523,0.002678,0.000431,0.513481
3710000,0.0324,0.013523,0.002678,0.000431,0.521708
3711000,0.0324,0.013523,0.002678,0.000431,0.527584
3712000,0.0324,0.013523,0.002678,0.000431,0.521355
3713000,0.0324,0.013523,0.002678,0.000431,0.544155
3714000,0.0324,0.013523,0.002678,0.000431,0.522060
3715000,0.0324,0.013523,0.002678,0.000431,0.528054
3716000,0.0324,0.013523,0.002678,0.000431,0.529112
3717000,0.0324,0.013523,0.002678,0.000431,0.533460
3718000,0.0324,0.013523,0.002678,0.000431,0.539219
3719000,0.0324,0.013523,0.002678,0.000431,0.514891
3720000,0.0324,0.013523,0.002678,0.000431,0.536046
3721000,0.0324,0.013523,0.002678,0.000431,0.510895
3722000,0.0324,0.013523,0.002678,0.000431,0.527819
3723000,0.0324,0.013523,0.002678,0.000431,0.531697
3724000,0.0324,0.013523,0.002678,0.000431,0.525821
3725000,0.0324,0.013523,0.002678,0.000431,0.517594
3726000,0.0324,0.013523,0.002678,0.000431,0.511600
3727000,0.0324,0.013523,0.002678,0.000431,0.505489
3728000,0.0324,0.013523,0.002678,0.000431,0.511953
3729000,0.0324,0.013523,0.002678,0.000431,0.516771
3730000,0.0324,0.013523,0.002678,0.000431,0.499730
3731000,0.0324,0.013523,0.002678,0.000431,0.509132
3732000,0.0324,0.013523,0.002678,0.000431,0.514186
3733000,0.0324,0.013523,0.002678,0.000431,0.501375
3734000,0.0324,0.013523,0.002678,0.000431,0.497732
3735000,0.0324,0.013523,0.002678,0.000431,0.492913
3736000,0.0324,0.013523,0.002678,0.000431,0.508192
3737000,0.0324,0.013523,0.002678,0.000431,0.516771
3738000,0.0324,0.013523,0.002678,0.000431,0.488330
3739000,0.0324,0.013523,0.002678,0.000431,0.495264
3740000,0.0324,0.013523,0.002678,0.000431,0.487389
3741000,0.0324,0.013523,0.002678,0.000431,0.493383
3742000,0.0324,0.013523,0.002678,0.000431,0.483511
3743000,0.0324,0.013523,0.002678,0.000431,0.479515
3744000,0.0324,0.013523,0.002678,0.000431,0.505959
3745000,0.0324,0.013523,0.002678,0.000431,0.480925
3746000,0.0324,0.013523,0.002678,0.000431,0.490445
3747000,0.0324,0.013523,0.002678,0.000431,0.485391
3748000,0.0324,0.013523,0.002678,0.000431,0.484451
3749000,0.0324,0.013523,0.002678,0.000431,0.469760
3750000,0.0324,0.013523,0.002678,0.000431,0.475401
3751000,0.0324,0.013523,0.002678,0.000431,0.460946
3752000,0.0324,0.013523,0.002678,0.000431,0.476929
3753000,0.0324,0.013523,0.002678,0.000431,0.471993
3754000,0.0324,0.013523,0.002678,0.000431,0.468820
3755000,0.0324,0.013523,0.002678,0.000431,0.448488
3756000,0.0324,0.013523,0.002678,0.000431,0.465177
3757000,0.0324,0.013523,0.002678,0.000431,0.451778
3758000,0.0324,0.013523,0.002678,0.000431,0.454129
3759000,0.0324,0.013523,0.002678,0.000431,0.463179
3760000,0.0324,0.013523,0.002678,0.000431,0.442023
3761000,0.0324,0.013523,0.002678,0.000431,0.449075
3762000,0.0324,0.013523,0.002678,0.000431,0.439203
3763000,0.0324,0.013523,0.002678,0.000431,0.458477
3764000,0.0324,0.013523,0.002678,0.000431,0.449310
3765000,0.0324,0.013523,0.002678,0.000431,0.444257
3766000,0.0324,0.013523,0.002678,0.000431,0.452013
3767000,0.0324,0.013523,0.002678,0.000431,0.446019
3768000,0.0324,0.013523,0.002678,0.000431,0.444609
3769000,0.0324,0.013523,0.002678,0.000431,0.450368
3770000,0.0324,0.013523,0.002678,0.000431,0.462944
3771000,0.0324,0.013523,0.002678,0.000431,0.450721
3772000,0.0324,0.013523,0.002678,0.000431,0.443316
3773000,0.0324,0.013523,0.002678,0.000431,0.433797
3774000,0.0324,0.013523,0.002678,0.000431,0.434619
3775000,0.0324,0.013523,0.002678,0.000431,0.440026
3776000,0.0324,0.013523,0.002678,0.000431,0.444844
3777000,0.0324,0.013523,0.002678,0.000431,0.450721
3778000,0.0324,0.013523,0.002678,0.000431,0.443199
3779000,0.0324,0.013523,0.002678,0.000431,0.447430
3780000,0.0324,0.013523,0.002678,0.000431,0.447077
3781000,0.0324,0.013523,0.002678,0.000431,0.444374
3782000,0.0324,0.013523,0.002678,0.000431,0.456950
3783000,0.0324,0.013523,0.002678,0.000431,0.440261
3784000,0.0324,0.013523,0.002678,0.000431,0.445079
3785000,0.0324,0.013523,0.002678,0.000431,0.434267
3786000,0.0324,0.013523,0.002678,0.000431,0.433679
3787000,0.0324,0.013523,0.002678,0.000431,0.422161
3788000,0.0324,0.013523,0.002678,0.000431,0.430858
3789000,0.0324,0.013523,0.002678,0.000431,0.420163
3790000,0.0324,0.013523,0.002678,0.000431,0.435207
3791000,0.0324,0.013523,0.002678,0.000431,0.433797
3792000,0.0324,0.013523,0.002678,0.000431,0.424159
3793000,0.0324,0.013523,0.002678,0.000431,0.438498
3794000,0.0324,0.013523,0.002678,0.000431,0.429448
3795000,0.0324,0.013523,0.002678,0.000431,0.417813
3796000,0.0324,0.013523,0.002678,0.000431,0.419341
3797000,0.0324,0.013523,0.002678,0.000431,0.413112
3798000,0.0324,0.013523,0.002678,0.000431,0.405120
3799000,0.0324,0.013523,0.002678,0.000431,0.412289
3800000,0.0324,0.013523,0.002678,0.000431,0.406765
3801000,0.0324,0.013523,0.002678,0.000431,0.417343
3802000,0.0324,0.013523,0.002678,0.000431,0.435795
3803000,0.0324,0.013523,0.002678,0.000431,0.426980
3804000,0.0324,0.013523,0.002678,0.000431,0.429683
3805000,0.0324,0.013523,0.002678,0.000431,0.431211
3806000,0.0324,0.013523,0.002678,0.000431,0.438968
3807000,0.0324,0.013523,0.002678,0.000431,0.430506
3808000,0.0324,0.013523,0.002678,0.000431,0.437792
3809000,0.0324,0.013523,0.002678,0.000431,0.456009
3810000,0.0324,0.013523,0.002678,0.000431,0.453306
3811000,0.0324,0.013523,0.002678,0.000431,0.460358
3812000,0.0324,0.013523,0.002678,0.000431,0.459183
3813000,0.0324,0.013523,0.002678,0.000431,0.463061
3814000,0.0324,0.013523,0.002678,0.000431,0.451543
3815000,0.0324,0.013523,0.002678,0.000431,0.456832
3816000,0.0324,0.013523,0.002678,0.000431,0.473404
3817000,0.0324,0.013523,0.002678,0.000431,0.461298
3818000,0.0324,0.013523,0.002678,0.000431,0.465294
3819000,0.0324,0.013523,0.002678,0.000431,0.468937
3820000,0.0324,0.013523,0.002678,0.000431,0.475049
3821000,0.0324,0.013523,0.002678,0.000431,0.459065
3822000,0.0324,0.013523,0.002678,0.000431,0.468232
3823000,0.0324,0.013523,0.002678,0.000431,0.474344
3824000,0.0324,0.013523,0.002678,0.000431,0.454364
3825000,0.0324,0.013523,0.002678,0.000431,0.460593
3826000,0.0324,0.013523,0.002678,0.000431,0.456009
3827000,0.0324,0.013523,0.002678,0.000431,0.453071
3828000,0.0324,0.013523,0.002678,0.000431,0.443551
3829000,0.0324,0.013523,0.002678,0.000431,0.444962
3830000,0.0324,0.013523,0.002678,0.000431,0.443199
3831000,0.0324,0.013523,0.002678,0.000431,0.467057
3832000,0.0324,0.013523,0.002678,0.000431,0.456832
3833000,0.0324,0.013523,0.002678,0.000431,0.460710
3834000,0.0324,0.013523,0.002678,0.000431,0.448252
3835000,0.0324,0.013523,0.002678,0.000431,0.446137
3836000,0.0324,0.013523,0.002678,0.000431,0.433326
3837000,0.0324,0.013523,0.002678,0.000431,0.455069
3838000,0.0324,0.013523,0.002678,0.000431,0.467292
3839000,0.0324,0.013523,0.002678,0.000431,0.449898
3840000,0.0324,0.013523,0.002678,0.000431,0.452484
3841000,0.0324,0.013523,0.002678,0.000431,0.452836
3842000,0.0324,0.013523,0.002678,0.000431,0.465412
3843000,0.0324,0.013523,0.002678,0.000431,0.452248
3844000,0.0324,0.013523,0.002678,0.000431,0.454246
3845000,0.0324,0.013523,0.002678,0.000431,0.453659
3846000,0.0324,0.013523,0.002678,0.000431,0.446019
3847000,0.0324,0.013523,0.002678,0.000431,0.444727
3848000,0.0324,0.013523,0.002678,0.000431,0.421456
3849000,0.0324,0.013523,0.002678,0.000431,0.450015
3850000,0.0324,0.013523,0.002678,0.000431,0.432386
3851000,0.0324,0.013523,0.002678,0.000431,0.434854
3852000,0.0324,0.013523,0.002678,0.000431,0.442259
3853000,0.0324,0.013523,0.002678,0.000431,0.421926
3854000,0.0324,0.013523,0.002678,0.000431,0.423572
3855000,0.0324,0.013523,0.002678,0.000431,0.431093
3856000,0.0324,0.013523,0.002678,0.000431,0.438498
3857000,0.0324,0.013523,0.002678,0.000431,0.431916
3858000,0.0324,0.013523,0.002678,0.000431,0.418870
3859000,0.0324,0.013523,0.002678,0.000431,0.422396
3860000,0.0324,0.013523,0.002678,0.000431,0.425687
3861000,0.0324,0.013523,0.002678,0.000431,0.419223
3862000,0.0324,0.013523,0.002678,0.000431,0.413699
3863000,0.0324,0.013523,0.002678,0.000431,0.410879
3864000,0.0324,0.013523,0.002678,0.000431,0.405825
3865000,0.0324,0.013523,0.002678,0.000431,0.408645
3866000,0.0324,0.013523,0.002678,0.000431,0.397715
3867000,0.0324,0.013523,0.002678,0.000431,0.389723
3868000,0.0324,0.013523,0.002678,0.000431,0.399126
3869000,0.0324,0.013523,0.002678,0.000431,0.393249
3870000,0.0324,0.013523,0.002678,0.000431,0.391134
3871000,0.0324,0.013523,0.002678,0.000431,0.381026
3872000,0.0324,0.013523,0.002678,0.000431,0.370919
3873000,0.0324,0.013523,0.002678,0.000431,0.388666
3874000,0.0324,0.013523,0.002678,0.000431,0.386198
3875000,0.0324,0.013523,0.002678,0.000431,0.392897
3876000,0.0324,0.013523,0.002678,0.000431,0.365278
3877000,0.0324,0.013523,0.002678,0.000431,0.374797
3878000,0.0324,0.013523,0.002678,0.000431,0.387725
3879000,0.0324,0.013523,0.002678,0.000431,0.366570
3880000,0.0324,0.013523,0.002678,0.000431,0.373034
3881000,0.0324,0.013523,0.002678,0.000431,0.368333
3882000,0.0324,0.013523,0.002678,0.000431,0.374915
3883000,0.0324,0.013523,0.002678,0.000431,0.367746
3884000,0.0324,0.013523,0.002678,0.000431,0.358814
3885000,0.0324,0.013523,0.002678,0.000431,0.365043
3886000,0.0324,0.013523,0.002678,0.000431,0.364102
3887000,0.0324,0.013523,0.002678,0.000431,0.363280
3888000,0.0324,0.013523,0.002678,0.000431,0.374797
3889000,0.0324,0.013523,0.002678,0.000431,0.352349
3890000,0.0324,0.013523,0.002678,0.000431,0.345415
3891000,0.0324,0.013523,0.002678,0.000431,0.353290
3892000,0.0324,0.013523,0.002678,0.000431,0.348471
3893000,0.0324,0.013523,0.002678,0.000431,0.346003
3894000,0.0324,0.013523,0.002678,0.000431,0.357638
3895000,0.0324,0.013523,0.002678,0.000431,0.342595
3896000,0.0324,0.013523,0.002678,0.000431,0.347648
3897000,0.0324,0.013523,0.002678,0.000431,0.340949
3898000,0.0324,0.013523,0.002678,0.000431,0.337894
3899000,0.0324,0.013523,0.002678,0.000431,0.347061
3900000,0.0324,0.013523,0.002678,0.000431,0.349176
3901000,0.0324,0.013523,0.002678,0.000431,0.351174
3902000,0.0324,0.013523,0.002678,0.000431,0.339774
3903000,0.0324,0.013523,0.002678,0.000431,0.348706
3904000,0.0324,0.013523,0.002678,0.000431,0.346003
3905000,0.0324,0.013523,0.002678,0.000431,0.339304
3906000,0.0324,0.013523,0.002678,0.000431,0.333427
3907000,0.0324,0.013523,0.002678,0.000431,0.339421
3908000,0.0324,0.013523,0.002678,0.000431,0.334250
3909000,0.0324,0.013523,0.002678,0.000431,0.337306
3910000,0.0324,0.013523,0.002678,0.000431,0.336366
3911000,0.0324,0.013523,0.002678,0.000431,0.344005
3912000,0.0324,0.013523,0.002678,0.000431,0.338246
3913000,0.0324,0.013523,0.002678,0.000431,0.342125
3914000,0.0324,0.013523,0.002678,0.000431,0.339656
3915000,0.0324,0.013523,0.002678,0.000431,0.334133
3916000,0.0324,0.013523,0.002678,0.000431,0.322850
3917000,0.0324,0.013523,0.002678,0.000431,0.326023
3918000,0.0324,0.013523,0.002678,0.000431,0.331194
3919000,0.0324,0.013523,0.002678,0.000431,0.350587
3920000,0.0324,0.013523,0.002678,0.000431,0.346826
3921000,0.0324,0.013523,0.002678,0.000431,0.335190
3922000,0.0324,0.013523,0.002678,0.000431,0.326376
3923000,0.0324,0.013523,0.002678,0.000431,0.345650
3924000,0.0324,0.013523,0.002678,0.000431,0.345885
3925000,0.0324,0.013523,0.002678,0.000431,0.351174
3926000,0.0324,0.013523,0.002678,0.000431,0.346591
3927000,0.0324,0.013523,0.002678,0.000431,0.362692
3928000,0.0324,0.013523,0.002678,0.000431,0.357991
3929000,0.0324,0.013523,0.002678,0.000431,0.337423
3930000,0.0324,0.013523,0.002678,0.000431,0.349294
3931000,0.0324,0.013523,0.002678,0.000431,0.350587
3932000,0.0324,0.013523,0.002678,0.000431,0.356698
3933000,0.0324,0.013523,0.002678,0.000431,0.351292
3934000,0.0324,0.013523,0.002678,0.000431,0.368333
3935000,0.0324,0.013523,0.002678,0.000431,0.370331
3936000,0.0324,0.013523,0.002678,0.000431,0.373387
3937000,0.0324,0.013523,0.002678,0.000431,0.362457
3938000,0.0324,0.013523,0.002678,0.000431,0.357638
3939000,0.0324,0.013523,0.002678,0.000431,0.372212
3940000,0.0324,0.013523,0.002678,0.000431,0.363750
3941000,0.0324,0.013523,0.002678,0.000431,0.364337
3942000,0.0324,0.013523,0.002678,0.000431,0.380321
3943000,0.0324,0.013523,0.002678,0.000431,0.383142
3944000,0.0324,0.013523,0.002678,0.000431,0.377736
3945000,0.0324,0.013523,0.002678,0.000431,0.391251
3946000,0.0324,0.013523,0.002678,0.000431,0.388548
3947000,0.0324,0.013523,0.002678,0.000431,0.383730
3948000,0.0324,0.013523,0.002678,0.000431,0.386080
3949000,0.0324,0.013523,0.002678,0.000431,0.388548
3950000,0.0324,0.013523,0.002678,0.000431,0.372212
3951000,0.0324,0.013523,0.002678,0.000431,0.380086
3952000,0.0324,0.013523,0.002678,0.000431,0.380674
3953000,0.0324,0.013523,0.002678,0.000431,0.383494
3954000,0.0324,0.013523,0.002678,0.000431,0.377971
3955000,0.0324,0.013523,0.002678,0.000431,0.387138
3956000,0.0324,0.013523,0.002678,0.000431,0.411349
3957000,0.0324,0.013523,0.002678,0.000431,0.399126
3958000,0.0324,0.013523,0.002678,0.000431,0.383142
3959000,0.0324,0.013523,0.002678,0.000431,0.380791
3960000,0.0324,0.013523,0.002678,0.000431,0.372564
3961000,0.0324,0.013523,0.002678,0.000431,0.375738
3962000,0.0324,0.013523,0.002678,0.000431,0.379734
3963000,0.0324,0.013523,0.002678,0.000431,0.384670
3964000,0.0324,0.013523,0.002678,0.000431,0.396775
3965000,0.0324,0.013523,0.002678,0.000431,0.396070
3966000,0.0324,0.013523,0.002678,0.000431,0.414287
3967000,0.0324,0.013523,0.002678,0.000431,0.439908
3968000,0.0324,0.013523,0.002678,0.000431,0.430623
3969000,0.0324,0.013523,0.002678,0.000431,0.458595
3970000,0.0324,0.013523,0.002678,0.000431,0.455187
3971000,0.0324,0.013523,0.002678,0.000431,0.452719
3972000,0.0324,0.013523,0.002678,0.000431,0.454599
3973000,0.0324,0.013523,0.002678,0.000431,0.457185
3974000,0.0324,0.013523,0.002678,0.000431,0.464706
3975000,0.0324,0.013523,0.002678,0.000431,0.459535
3976000,0.0324,0.013523,0.002678,0.000431,0.463179
3977000,0.0324,0.013523,0.002678,0.000431,0.475049
3978000,0.0324,0.013523,0.002678,0.000431,0.474931
3979000,0.0324,0.013523,0.002678,0.000431,0.490210
3980000,0.0324,0.013523,0.002678,0.000431,0.486567
3981000,0.0324,0.013523,0.002678,0.000431,0.479162
3982000,0.0324,0.013523,0.002678,0.000431,0.493148
3983000,0.0324,0.013523,0.002678,0.000431,0.489622
3984000,0.0324,0.013523,0.002678,0.000431,0.488800
3985000,0.0324,0.013523,0.002678,0.000431,0.501845
3986000,0.0324,0.013523,0.002678,0.000431,0.489740
3987000,0.0324,0.013523,0.002678,0.000431,0.488095
3988000,0.0324,0.013523,0.002678,0.000431,0.470348
3989000,0.0324,0.013523,0.002678,0.000431,0.479985
3990000,0.0324,0.013523,0.002678,0.000431,0.493501
3991000,0.0324,0.013523,0.002678,0.000431,0.485509
3992000,0.0324,0.013523,0.002678,0.000431,0.484804
3993000,0.0324,0.013523,0.002678,0.000431,0.489740
3994000,0.0324,0.013523,0.002678,0.000431,0.483628
3995000,0.0324,0.013523,0.002678,0.000431,0.489622
3996000,0.0324,0.013523,0.002678,0.000431,0.470465
3997000,0.0324,0.013523,0.002678,0.000431,0.472581
3998000,0.0324,0.013523,0.002678,0.000431,0.471993
3999000,0.0324,0.013523,0.002678,0.000431,0.472698
