Cycle,Area(mm^2),PeakDynamic(W),SubthresholdLeakage(W),GateLeakage(W),RunTimeDynamic(W)
4000000,0.0324,0.013523,0.002678,0.000431,0.485039
4001000,0.0324,0.013523,0.002678,0.000431,0.512305
4002000,0.0324,0.013523,0.002678,0.000431,0.484686
4003000,0.0324,0.013523,0.002678,0.000431,0.492090
4004000,0.0324,0.013523,0.002678,0.000431,0.495969
4005000,0.0324,0.013523,0.002678,0.000431,0.487037
4006000,0.0324,0.013523,0.002678,0.000431,0.485744
4007000,0.0324,0.013523,0.002678,0.000431,0.502786
4008000,0.0324,0.013523,0.002678,0.000431,0.488565
4009000,0.0324,0.013523,0.002678,0.000431,0.479397
4010000,0.0324,0.013523,0.002678,0.000431,0.484451
4011000,0.0324,0.013523,0.002678,0.000431,0.483628
4012000,0.0324,0.013523,0.002678,0.000431,0.480925
4013000,0.0324,0.013523,0.002678,0.000431,0.484921
4014000,0.0324,0.013523,0.002678,0.000431,0.481513
4015000,0.0324,0.013523,0.002678,0.000431,0.473521
4016000,0.0324,0.013523,0.002678,0.000431,0.461416
4017000,0.0324,0.013523,0.002678,0.000431,0.483041
4018000,0.0324,0.013523,0.002678,0.000431,0.463884
4019000,0.0324,0.013523,0.002678,0.000431,0.469055
4020000,0.0324,0.013523,0.002678,0.000431,0.471876
4021000,0.0324,0.013523,0.002678,0.000431,0.473286
4022000,0.0324,0.013523,0.002678,0.000431,0.456009
4023000,0.0324,0.013523,0.002678,0.000431,0.446019
4024000,0.0324,0.013523,0.002678,0.000431,0.437440
4025000,0.0324,0.013523,0.002678,0.000431,0.456715
4026000,0.0324,0.013523,0.002678,0.000431,0.447665
4027000,0.0324,0.013523,0.002678,0.000431,0.462826
4028000,0.0324,0.013523,0.002678,0.000431,0.458948
4029000,0.0324,0.013523,0.002678,0.000431,0.464941
4030000,0.0324,0.013523,0.002678,0.000431,0.469643
4031000,0.0324,0.013523,0.002678,0.000431,0.464471
4032000,0.0324,0.013523,0.002678,0.000431,0.447900
4033000,0.0324,0.013523,0.002678,0.000431,0.453424
4034000,0.0324,0.013523,0.002678,0.000431,0.463766
4035000,0.0324,0.013523,0.002678,0.000431,0.463884
4036000,0.0324,0.013523,0.002678,0.000431,0.497732
4037000,0.0324,0.013523,0.002678,0.000431,0.470935
4038000,0.0324,0.013523,0.002678,0.000431,0.473756
4039000,0.0324,0.013523,0.002678,0.000431,0.472111
4040000,0.0324,0.013523,0.002678,0.000431,0.483041
4041000,0.0324,0.013523,0.002678,0.000431,0.484099
4042000,0.0324,0.013523,0.002678,0.000431,0.507487
4043000,0.0324,0.013523,0.002678,0.000431,0.504901
4044000,0.0324,0.013523,0.002678,0.000431,0.486684
4045000,0.0324,0.013523,0.002678,0.000431,0.481278
4046000,0.0324,0.013523,0.002678,0.000431,0.491503
4047000,0.0324,0.013523,0.002678,0.000431,0.478575
4048000,0.0324,0.013523,0.002678,0.000431,0.493501
4049000,0.0324,0.013523,0.002678,0.000431,0.488212
4050000,0.0324,0.013523,0.002678,0.000431,0.485156
4051000,0.0324,0.013523,0.002678,0.000431,0.502433
4052000,0.0324,0.013523,0.002678,0.000431,0.507252
4053000,0.0324,0.013523,0.002678,0.000431,0.491385
4054000,0.0324,0.013523,0.002678,0.000431,0.489740
4055000,0.0324,0.013523,0.002678,0.000431,0.497144
4056000,0.0324,0.013523,0.002678,0.000431,0.493736
4057000,0.0324,0.013523,0.002678,0.000431,0.504078
4058000,0.0324,0.013523,0.002678,0.000431,0.483746
4059000,0.0324,0.013523,0.002678,0.000431,0.473874
4060000,0.0324,0.013523,0.002678,0.000431,0.479633
4061000,0.0324,0.013523,0.002678,0.000431,0.486567
4062000,0.0324,0.013523,0.002678,0.000431,0.480455
4063000,0.0324,0.013523,0.002678,0.000431,0.494676
4064000,0.0324,0.013523,0.002678,0.000431,0.495734
4065000,0.0324,0.013523,0.002678,0.000431,0.501023
4066000,0.0324,0.013523,0.002678,0.000431,0.508074
4067000,0.0324,0.013523,0.002678,0.000431,0.498202
4068000,0.0324,0.013523,0.002678,0.000431,0.483393
4069000,0.0324,0.013523,0.002678,0.000431,0.488330
4070000,0.0324,0.013523,0.002678,0.000431,0.492326
4071000,0.0324,0.013523,0.002678,0.000431,0.471993
4072000,0.0324,0.013523,0.002678,0.000431,0.503138
4073000,0.0324,0.013523,0.002678,0.000431,0.489740
4074000,0.0324,0.013523,0.002678,0.000431,0.492090
4075000,0.0324,0.013523,0.002678,0.000431,0.496792
4076000,0.0324,0.013523,0.002678,0.000431,0.481630
4077000,0.0324,0.013523,0.002678,0.000431,0.499377
4078000,0.0324,0.013523,0.002678,0.000431,0.488800
4079000,0.0324,0.013523,0.002678,0.000431,0.507839
4080000,0.0324,0.013523,0.002678,0.000431,0.487037
4081000,0.0324,0.013523,0.002678,0.000431,0.478927
4082000,0.0324,0.013523,0.002678,0.000431,0.480808
4083000,0.0324,0.013523,0.002678,0.000431,0.490798
4084000,0.0324,0.013523,0.002678,0.000431,0.490915
4085000,0.0324,0.013523,0.002678,0.000431,0.482453
4086000,0.0324,0.013523,0.002678,0.000431,0.476459
4087000,0.0324,0.013523,0.002678,0.000431,0.468350
4088000,0.0324,0.013523,0.002678,0.000431,0.470348
4089000,0.0324,0.013523,0.002678,0.000431,0.470348
4090000,0.0324,0.013523,0.002678,0.000431,0.468820
4091000,0.0324,0.013523,0.002678,0.000431,0.488095
4092000,0.0324,0.013523,0.002678,0.000431,0.487977
4093000,0.0324,0.013523,0.002678,0.000431,0.476459
4094000,0.0324,0.013523,0.002678,0.000431,0.472463
4095000,0.0324,0.013523,0.002678,0.000431,0.481983
4096000,0.0324,0.013523,0.002678,0.000431,0.492090
4097000,0.0324,0.013523,0.002678,0.000431,0.495499
4098000,0.0324,0.013523,0.002678,0.000431,0.529347
4099000,0.0324,0.013523,0.002678,0.000431,0.489152
4100000,0.0324,0.013523,0.002678,0.000431,0.496557
4101000,0.0324,0.013523,0.002678,0.000431,0.492326
4102000,0.0324,0.013523,0.002678,0.000431,0.499847
4103000,0.0324,0.013523,0.002678,0.000431,0.535693
4104000,0.0324,0.013523,0.002678,0.000431,0.524176
4105000,0.0324,0.013523,0.002678,0.000431,0.509837
4106000,0.0324,0.013523,0.002678,0.000431,0.526526
4107000,0.0324,0.013523,0.002678,0.000431,0.522765
4108000,0.0324,0.013523,0.002678,0.000431,0.520650
4109000,0.0324,0.013523,0.002678,0.000431,0.523823
4110000,0.0324,0.013523,0.002678,0.000431,0.522883
4111000,0.0324,0.013523,0.002678,0.000431,0.509720
4112000,0.0324,0.013523,0.002678,0.000431,0.509250
4113000,0.0324,0.013523,0.002678,0.000431,0.538162
4114000,0.0324,0.013523,0.002678,0.000431,0.534401
4115000,0.0324,0.013523,0.002678,0.000431,0.550855
4116000,0.0324,0.013523,0.002678,0.000431,0.553205
4117000,0.0324,0.013523,0.002678,0.000431,0.523941
4118000,0.0324,0.013523,0.002678,0.000431,0.566368
4119000,0.0324,0.013523,0.002678,0.000431,0.540512
4120000,0.0324,0.013523,0.002678,0.000431,0.560609
4121000,0.0324,0.013523,0.002678,0.000431,0.542628
4122000,0.0324,0.013523,0.002678,0.000431,0.564018
4123000,0.0324,0.013523,0.002678,0.000431,0.539689
4124000,0.0324,0.013523,0.002678,0.000431,0.545448
4125000,0.0324,0.013523,0.002678,0.000431,0.529112
4126000,0.0324,0.013523,0.002678,0.000431,0.532873
4127000,0.0324,0.013523,0.002678,0.000431,0.529112
4128000,0.0324,0.013523,0.002678,0.000431,0.531227
4129000,0.0324,0.013523,0.002678,0.000431,0.528877
4130000,0.0324,0.013523,0.002678,0.000431,0.525939
4131000,0.0324,0.013523,0.002678,0.000431,0.532990
4132000,0.0324,0.013523,0.002678,0.000431,0.511835
4133000,0.0324,0.013523,0.002678,0.000431,0.518769
4134000,0.0324,0.013523,0.002678,0.000431,0.511718
4135000,0.0324,0.013523,0.002678,0.000431,0.539807
4136000,0.0324,0.013523,0.002678,0.000431,0.528994
4137000,0.0324,0.013523,0.002678,0.000431,0.517829
4138000,0.0324,0.013523,0.002678,0.000431,0.521120
4139000,0.0324,0.013523,0.002678,0.000431,0.533343
4140000,0.0324,0.013523,0.002678,0.000431,0.516536
4141000,0.0324,0.013523,0.002678,0.000431,0.512423
4142000,0.0324,0.013523,0.002678,0.000431,0.519004
4143000,0.0324,0.013523,0.002678,0.000431,0.490798
4144000,0.0324,0.013523,0.002678,0.000431,0.489857
4145000,0.0324,0.013523,0.002678,0.000431,0.514656
4146000,0.0324,0.013523,0.002678,0.000431,0.507252
4147000,0.0324,0.013523,0.002678,0.000431,0.503491
4148000,0.0324,0.013523,0.002678,0.000431,0.504901
4149000,0.0324,0.013523,0.002678,0.000431,0.500670
4150000,0.0324,0.013523,0.002678,0.000431,0.490445
4151000,0.0324,0.013523,0.002678,0.000431,0.511365
4152000,0.0324,0.013523,0.002678,0.000431,0.495029
4153000,0.0324,0.013523,0.002678,0.000431,0.485979
4154000,0.0324,0.013523,0.002678,0.000431,0.484921
4155000,0.0324,0.013523,0.002678,0.000431,0.489152
4156000,0.0324,0.013523,0.002678,0.000431,0.473991
4157000,0.0324,0.013523,0.002678,0.000431,0.462944
4158000,0.0324,0.013523,0.002678,0.000431,0.467292
4159000,0.0324,0.013523,0.002678,0.000431,0.463884
4160000,0.0324,0.013523,0.002678,0.000431,0.455539
4161000,0.0324,0.013523,0.002678,0.000431,0.466469
4162000,0.0324,0.013523,0.002678,0.000431,0.460828
4163000,0.0324,0.013523,0.002678,0.000431,0.461181
4164000,0.0324,0.013523,0.002678,0.000431,0.470230
4165000,0.0324,0.013523,0.002678,0.000431,0.468937
4166000,0.0324,0.013523,0.002678,0.000431,0.468937
4167000,0.0324,0.013523,0.002678,0.000431,0.464589
4168000,0.0324,0.013523,0.002678,0.000431,0.460828
4169000,0.0324,0.013523,0.002678,0.000431,0.459653
4170000,0.0324,0.013523,0.002678,0.000431,0.448723
4171000,0.0324,0.013523,0.002678,0.000431,0.453659
4172000,0.0324,0.013523,0.002678,0.000431,0.462356
4173000,0.0324,0.013523,0.002678,0.000431,0.439908
4174000,0.0324,0.013523,0.002678,0.000431,0.434854
4175000,0.0324,0.013523,0.002678,0.000431,0.444139
4176000,0.0324,0.013523,0.002678,0.000431,0.428508
4177000,0.0324,0.013523,0.002678,0.000431,0.424159
4178000,0.0324,0.013523,0.002678,0.000431,0.419576
4179000,0.0324,0.013523,0.002678,0.000431,0.425922
4180000,0.0324,0.013523,0.002678,0.000431,0.426040
4181000,0.0324,0.013523,0.002678,0.000431,0.425570
4182000,0.0324,0.013523,0.002678,0.000431,0.425099
4183000,0.0324,0.013523,0.002678,0.000431,0.416050
4184000,0.0324,0.013523,0.002678,0.000431,0.408175
4185000,0.0324,0.013523,0.002678,0.000431,0.409116
4186000,0.0324,0.013523,0.002678,0.000431,0.411466
4187000,0.0324,0.013523,0.002678,0.000431,0.396188
4188000,0.0324,0.013523,0.002678,0.000431,0.411819
4189000,0.0324,0.013523,0.002678,0.000431,0.401476
4190000,0.0324,0.013523,0.002678,0.000431,0.395247
4191000,0.0324,0.013523,0.002678,0.000431,0.392192
4192000,0.0324,0.013523,0.002678,0.000431,0.393954
4193000,0.0324,0.013523,0.002678,0.000431,0.386315
4194000,0.0324,0.013523,0.002678,0.000431,0.373387
4195000,0.0324,0.013523,0.002678,0.000431,0.372917
4196000,0.0324,0.013523,0.002678,0.000431,0.365748
4197000,0.0324,0.013523,0.002678,0.000431,0.379499
4198000,0.0324,0.013523,0.002678,0.000431,0.360576
4199000,0.0324,0.013523,0.002678,0.000431,0.353760
4200000,0.0324,0.013523,0.002678,0.000431,0.364337
4201000,0.0324,0.013523,0.002678,0.000431,0.341419
4202000,0.0324,0.013523,0.002678,0.000431,0.344123
4203000,0.0324,0.013523,0.002678,0.000431,0.344945
4204000,0.0324,0.013523,0.002678,0.000431,0.339656
4205000,0.0324,0.013523,0.002678,0.000431,0.338246
4206000,0.0324,0.013523,0.002678,0.000431,0.337188
4207000,0.0324,0.013523,0.002678,0.000431,0.338011
4208000,0.0324,0.013523,0.002678,0.000431,0.328844
4209000,0.0324,0.013523,0.002678,0.000431,0.333075
4210000,0.0324,0.013523,0.002678,0.000431,0.335778
4211000,0.0324,0.013523,0.002678,0.000431,0.327786
4212000,0.0324,0.013523,0.002678,0.000431,0.328726
4213000,0.0324,0.013523,0.002678,0.000431,0.331077
4214000,0.0324,0.013523,0.002678,0.000431,0.333780
4215000,0.0324,0.013523,0.002678,0.000431,0.334838
4216000,0.0324,0.013523,0.002678,0.000431,0.334603
4217000,0.0324,0.013523,0.002678,0.000431,0.338716
4218000,0.0324,0.013523,0.002678,0.000431,0.334485
4219000,0.0324,0.013523,0.002678,0.000431,0.343300
4220000,0.0324,0.013523,0.002678,0.000431,0.349411
4221000,0.0324,0.013523,0.002678,0.000431,0.335778
4222000,0.0324,0.013523,0.002678,0.000431,0.340597
4223000,0.0324,0.013523,0.002678,0.000431,0.336836
4224000,0.0324,0.013523,0.002678,0.000431,0.334838
4225000,0.0324,0.013523,0.002678,0.000431,0.345650
4226000,0.0324,0.013523,0.002678,0.000431,0.339892
4227000,0.0324,0.013523,0.002678,0.000431,0.343652
4228000,0.0324,0.013523,0.002678,0.000431,0.339774
4229000,0.0324,0.013523,0.002678,0.000431,0.347883
4230000,0.0324,0.013523,0.002678,0.000431,0.357286
4231000,0.0324,0.013523,0.002678,0.000431,0.353877
4232000,0.0324,0.013523,0.002678,0.000431,0.348354
4233000,0.0324,0.013523,0.002678,0.000431,0.339539
4234000,0.0324,0.013523,0.002678,0.000431,0.344240
4235000,0.0324,0.013523,0.002678,0.000431,0.346003
4236000,0.0324,0.013523,0.002678,0.000431,0.334955
4237000,0.0324,0.013523,0.002678,0.000431,0.339421
4238000,0.0324,0.013523,0.002678,0.000431,0.337776
4239000,0.0324,0.013523,0.002678,0.000431,0.334485
4240000,0.0324,0.013523,0.002678,0.000431,0.327198
4241000,0.0324,0.013523,0.002678,0.000431,0.341067
4242000,0.0324,0.013523,0.002678,0.000431,0.344358
4243000,0.0324,0.013523,0.002678,0.000431,0.343182
4244000,0.0324,0.013523,0.002678,0.000431,0.340832
4245000,0.0324,0.013523,0.002678,0.000431,0.343300
4246000,0.0324,0.013523,0.002678,0.000431,0.336953
4247000,0.0324,0.013523,0.002678,0.000431,0.341067
4248000,0.0324,0.013523,0.002678,0.000431,0.346120
4249000,0.0324,0.013523,0.002678,0.000431,0.329784
4250000,0.0324,0.013523,0.002678,0.000431,0.335425
4251000,0.0324,0.013523,0.002678,0.000431,0.339539
4252000,0.0324,0.013523,0.002678,0.000431,0.330489
4253000,0.0324,0.013523,0.002678,0.000431,0.332487
4254000,0.0324,0.013523,0.002678,0.000431,0.342007
4255000,0.0324,0.013523,0.002678,0.000431,0.357756
4256000,0.0324,0.013523,0.002678,0.000431,0.350822
4257000,0.0324,0.013523,0.002678,0.000431,0.346591
4258000,0.0324,0.013523,0.002678,0.000431,0.353172
4259000,0.0324,0.013523,0.002678,0.000431,0.351879
4260000,0.0324,0.013523,0.002678,0.000431,0.365278
4261000,0.0324,0.013523,0.002678,0.000431,0.347531
4262000,0.0324,0.013523,0.002678,0.000431,0.357403
4263000,0.0324,0.013523,0.002678,0.000431,0.355758
4264000,0.0324,0.013523,0.002678,0.000431,0.348354
4265000,0.0324,0.013523,0.002678,0.000431,0.346003
4266000,0.0324,0.013523,0.002678,0.000431,0.353760
4267000,0.0324,0.013523,0.002678,0.000431,0.341302
4268000,0.0324,0.013523,0.002678,0.000431,0.333075
4269000,0.0324,0.013523,0.002678,0.000431,0.330254
4270000,0.0324,0.013523,0.002678,0.000431,0.351292
4271000,0.0324,0.013523,0.002678,0.000431,0.366453
4272000,0.0324,0.013523,0.002678,0.000431,0.345533
4273000,0.0324,0.013523,0.002678,0.000431,0.342242
4274000,0.0324,0.013523,0.002678,0.000431,0.339656
4275000,0.0324,0.013523,0.002678,0.000431,0.358461
4276000,0.0324,0.013523,0.002678,0.000431,0.347296
4277000,0.0324,0.013523,0.002678,0.000431,0.347061
4278000,0.0324,0.013523,0.002678,0.000431,0.342360
4279000,0.0324,0.013523,0.002678,0.000431,0.337658
4280000,0.0324,0.013523,0.002678,0.000431,0.358814
4281000,0.0324,0.013523,0.002678,0.000431,0.356110
4282000,0.0324,0.013523,0.002678,0.000431,0.345650
4283000,0.0324,0.013523,0.002678,0.000431,0.361987
4284000,0.0324,0.013523,0.002678,0.000431,0.355523
4285000,0.0324,0.013523,0.002678,0.000431,0.355993
4286000,0.0324,0.013523,0.002678,0.000431,0.352467
4287000,0.0324,0.013523,0.002678,0.000431,0.349646
4288000,0.0324,0.013523,0.002678,0.000431,0.360694
4289000,0.0324,0.013523,0.002678,0.000431,0.361399
4290000,0.0324,0.013523,0.002678,0.000431,0.360341
4291000,0.0324,0.013523,0.002678,0.000431,0.351879
4292000,0.0324,0.013523,0.002678,0.000431,0.363397
4293000,0.0324,0.013523,0.002678,0.000431,0.351762
4294000,0.0324,0.013523,0.002678,0.000431,0.357991
4295000,0.0324,0.013523,0.002678,0.000431,0.346473
4296000,0.0324,0.013523,0.002678,0.000431,0.359284
4297000,0.0324,0.013523,0.002678,0.000431,0.339304
4298000,0.0324,0.013523,0.002678,0.000431,0.348471
4299000,0.0324,0.013523,0.002678,0.000431,0.350822
4300000,0.0324,0.013523,0.002678,0.000431,0.360812
4301000,0.0324,0.013523,0.002678,0.000431,0.351174
4302000,0.0324,0.013523,0.002678,0.000431,0.359401
4303000,0.0324,0.013523,0.002678,0.000431,0.355640
4304000,0.0324,0.013523,0.002678,0.000431,0.345063
4305000,0.0324,0.013523,0.002678,0.000431,0.354818
4306000,0.0324,0.013523,0.002678,0.000431,0.356345
4307000,0.0324,0.013523,0.002678,0.000431,0.341537
4308000,0.0324,0.013523,0.002678,0.000431,0.350352
4309000,0.0324,0.013523,0.002678,0.000431,0.344005
4310000,0.0324,0.013523,0.002678,0.000431,0.340362
4311000,0.0324,0.013523,0.002678,0.000431,0.337188
4312000,0.0324,0.013523,0.002678,0.000431,0.342007
4313000,0.0324,0.013523,0.002678,0.000431,0.338481
4314000,0.0324,0.013523,0.002678,0.000431,0.338364
4315000,0.0324,0.013523,0.002678,0.000431,0.338951
4316000,0.0324,0.013523,0.002678,0.000431,0.342360
4317000,0.0324,0.013523,0.002678,0.000431,0.348236
4318000,0.0324,0.013523,0.002678,0.000431,0.341184
4319000,0.0324,0.013523,0.002678,0.000431,0.338246
4320000,0.0324,0.013523,0.002678,0.000431,0.326963
4321000,0.0324,0.013523,0.002678,0.000431,0.334720
4322000,0.0324,0.013523,0.002678,0.000431,0.332370
4323000,0.0324,0.013523,0.002678,0.000431,0.343065
4324000,0.0324,0.013523,0.002678,0.000431,0.329431
4325000,0.0324,0.013523,0.002678,0.000431,0.331547
4326000,0.0324,0.013523,0.002678,0.000431,0.333075
4327000,0.0324,0.013523,0.002678,0.000431,0.338129
4328000,0.0324,0.013523,0.002678,0.000431,0.331312
4329000,0.0324,0.013523,0.002678,0.000431,0.323320
4330000,0.0324,0.013523,0.002678,0.000431,0.329079
4331000,0.0324,0.013523,0.002678,0.000431,0.346826
4332000,0.0324,0.013523,0.002678,0.000431,0.340009
4333000,0.0324,0.013523,0.002678,0.000431,0.326728
4334000,0.0324,0.013523,0.002678,0.000431,0.325553
4335000,0.0324,0.013523,0.002678,0.000431,0.320382
4336000,0.0324,0.013523,0.002678,0.000431,0.324730
4337000,0.0324,0.013523,0.002678,0.000431,0.319677
4338000,0.0324,0.013523,0.002678,0.000431,0.326141
4339000,0.0324,0.013523,0.002678,0.000431,0.321910
4340000,0.0324,0.013523,0.002678,0.000431,0.322145
4341000,0.0324,0.013523,0.002678,0.000431,0.320852
4342000,0.0324,0.013523,0.002678,0.000431,0.320617
4343000,0.0324,0.013523,0.002678,0.000431,0.320617
4344000,0.0324,0.013523,0.002678,0.000431,0.326963
4345000,0.0324,0.013523,0.002678,0.000431,0.320382
4346000,0.0324,0.013523,0.002678,0.000431,0.323790
4347000,0.0324,0.013523,0.002678,0.000431,0.324025
4348000,0.0324,0.013523,0.002678,0.000431,0.322497
4349000,0.0324,0.013523,0.002678,0.000431,0.325788
4350000,0.0324,0.013523,0.002678,0.000431,0.328726
4351000,0.0324,0.013523,0.002678,0.000431,0.329902
4352000,0.0324,0.013523,0.002678,0.000431,0.335190
4353000,0.0324,0.013523,0.002678,0.000431,0.336483
4354000,0.0324,0.013523,0.002678,0.000431,0.328609
4355000,0.0324,0.013523,0.002678,0.000431,0.327434
4356000,0.0324,0.013523,0.002678,0.000431,0.326728
4357000,0.0324,0.013523,0.002678,0.000431,0.332605
4358000,0.0324,0.013523,0.002678,0.000431,0.340832
4359000,0.0324,0.013523,0.002678,0.000431,0.347178
4360000,0.0324,0.013523,0.002678,0.000431,0.329079
4361000,0.0324,0.013523,0.002678,0.000431,0.335190
4362000,0.0324,0.013523,0.002678,0.000431,0.333780
4363000,0.0324,0.013523,0.002678,0.000431,0.326376
4364000,0.0324,0.013523,0.002678,0.000431,0.339774
4365000,0.0324,0.013523,0.002678,0.000431,0.332840
4366000,0.0324,0.013523,0.002678,0.000431,0.327316
4367000,0.0324,0.013523,0.002678,0.000431,0.322262
4368000,0.0324,0.013523,0.002678,0.000431,0.334485
4369000,0.0324,0.013523,0.002678,0.000431,0.341537
4370000,0.0324,0.013523,0.002678,0.000431,0.339892
4371000,0.0324,0.013523,0.002678,0.000431,0.333898
4372000,0.0324,0.013523,0.002678,0.000431,0.336836
4373000,0.0324,0.013523,0.002678,0.000431,0.328021
4374000,0.0324,0.013523,0.002678,0.000431,0.337423
4375000,0.0324,0.013523,0.002678,0.000431,0.341302
4376000,0.0324,0.013523,0.002678,0.000431,0.338951
4377000,0.0324,0.013523,0.002678,0.000431,0.329784
4378000,0.0324,0.013523,0.002678,0.000431,0.332840
4379000,0.0324,0.013523,0.002678,0.000431,0.341654
4380000,0.0324,0.013523,0.002678,0.000431,0.339421
4381000,0.0324,0.013523,0.002678,0.000431,0.342477
4382000,0.0324,0.013523,0.002678,0.000431,0.340479
4383000,0.0324,0.013523,0.002678,0.000431,0.337306
4384000,0.0324,0.013523,0.002678,0.000431,0.337071
4385000,0.0324,0.013523,0.002678,0.000431,0.323673
4386000,0.0324,0.013523,0.002678,0.000431,0.335896
4387000,0.0324,0.013523,0.002678,0.000431,0.347531
4388000,0.0324,0.013523,0.002678,0.000431,0.335543
4389000,0.0324,0.013523,0.002678,0.000431,0.330137
4390000,0.0324,0.013523,0.002678,0.000431,0.334368
4391000,0.0324,0.013523,0.002678,0.000431,0.335425
4392000,0.0324,0.013523,0.002678,0.000431,0.343652
4393000,0.0324,0.013523,0.002678,0.000431,0.333427
4394000,0.0324,0.013523,0.002678,0.000431,0.343300
4395000,0.0324,0.013523,0.002678,0.000431,0.348706
4396000,0.0324,0.013523,0.002678,0.000431,0.350234
4397000,0.0324,0.013523,0.002678,0.000431,0.346826
4398000,0.0324,0.013523,0.002678,0.000431,0.337423
4399000,0.0324,0.013523,0.002678,0.000431,0.331782
4400000,0.0324,0.013523,0.002678,0.000431,0.334955
4401000,0.0324,0.013523,0.002678,0.000431,0.330254
4402000,0.0324,0.013523,0.002678,0.000431,0.326611
4403000,0.0324,0.013523,0.002678,0.000431,0.347178
4404000,0.0324,0.013523,0.002678,0.000431,0.348589
4405000,0.0324,0.013523,0.002678,0.000431,0.325906
4406000,0.0324,0.013523,0.002678,0.000431,0.332135
4407000,0.0324,0.013523,0.002678,0.000431,0.326846
4408000,0.0324,0.013523,0.002678,0.000431,0.341302
4409000,0.0324,0.013523,0.002678,0.000431,0.329431
4410000,0.0324,0.013523,0.002678,0.000431,0.328139
4411000,0.0324,0.013523,0.002678,0.000431,0.328609
4412000,0.0324,0.013523,0.002678,0.000431,0.330254
4413000,0.0324,0.013523,0.002678,0.000431,0.330019
4414000,0.0324,0.013523,0.002678,0.000431,0.340949
4415000,0.0324,0.013523,0.002678,0.000431,0.328491
4416000,0.0324,0.013523,0.002678,0.000431,0.319324
4417000,0.0324,0.013523,0.002678,0.000431,0.324495
4418000,0.0324,0.013523,0.002678,0.000431,0.317209
4419000,0.0324,0.013523,0.002678,0.000431,0.314976
4420000,0.0324,0.013523,0.002678,0.000431,0.315916
4421000,0.0324,0.013523,0.002678,0.000431,0.318736
4422000,0.0324,0.013523,0.002678,0.000431,0.306513
4423000,0.0324,0.013523,0.002678,0.000431,0.306866
4424000,0.0324,0.013523,0.002678,0.000431,0.303223
4425000,0.0324,0.013523,0.002678,0.000431,0.303340
4426000,0.0324,0.013523,0.002678,0.000431,0.300755
4427000,0.0324,0.013523,0.002678,0.000431,0.293468
4428000,0.0324,0.013523,0.002678,0.000431,0.288179
4429000,0.0324,0.013523,0.002678,0.000431,0.294056
4430000,0.0324,0.013523,0.002678,0.000431,0.296289
4431000,0.0324,0.013523,0.002678,0.000431,0.282185
4432000,0.0324,0.013523,0.002678,0.000431,0.285123
4433000,0.0324,0.013523,0.002678,0.000431,0.288179
4434000,0.0324,0.013523,0.002678,0.000431,0.282420
4435000,0.0324,0.013523,0.002678,0.000431,0.276544
4436000,0.0324,0.013523,0.002678,0.000431,0.281010
4437000,0.0324,0.013523,0.002678,0.000431,0.278072
4438000,0.0324,0.013523,0.002678,0.000431,0.277954
4439000,0.0324,0.013523,0.002678,0.000431,0.269962
4440000,0.0324,0.013523,0.002678,0.000431,0.264909
4441000,0.0324,0.013523,0.002678,0.000431,0.273371
4442000,0.0324,0.013523,0.002678,0.000431,0.257152
4443000,0.0324,0.013523,0.002678,0.000431,0.262440
4444000,0.0324,0.013523,0.002678,0.000431,0.258327
4445000,0.0324,0.013523,0.002678,0.000431,0.255389
4446000,0.0324,0.013523,0.002678,0.000431,0.249042
4447000,0.0324,0.013523,0.002678,0.000431,0.246574
4448000,0.0324,0.013523,0.002678,0.000431,0.253391
4449000,0.0324,0.013523,0.002678,0.000431,0.254801
4450000,0.0324,0.013523,0.002678,0.000431,0.247984
4451000,0.0324,0.013523,0.002678,0.000431,0.242226
4452000,0.0324,0.013523,0.002678,0.000431,0.242578
4453000,0.0324,0.013523,0.002678,0.000431,0.238465
4454000,0.0324,0.013523,0.002678,0.000431,0.243753
4455000,0.0324,0.013523,0.002678,0.000431,0.245516
4456000,0.0324,0.013523,0.002678,0.000431,0.248455
4457000,0.0324,0.013523,0.002678,0.000431,0.248572
4458000,0.0324,0.013523,0.002678,0.000431,0.251275
4459000,0.0324,0.013523,0.002678,0.000431,0.236819
4460000,0.0324,0.013523,0.002678,0.000431,0.250218
4461000,0.0324,0.013523,0.002678,0.000431,0.247632
4462000,0.0324,0.013523,0.002678,0.000431,0.242226
4463000,0.0324,0.013523,0.002678,0.000431,0.247984
4464000,0.0324,0.013523,0.002678,0.000431,0.242343
4465000,0.0324,0.013523,0.002678,0.000431,0.238582
4466000,0.0324,0.013523,0.002678,0.000431,0.240815
4467000,0.0324,0.013523,0.002678,0.000431,0.240463
4468000,0.0324,0.013523,0.002678,0.000431,0.228945
4469000,0.0324,0.013523,0.002678,0.000431,0.231531
4470000,0.0324,0.013523,0.002678,0.000431,0.228122
4471000,0.0324,0.013523,0.002678,0.000431,0.232353
4472000,0.0324,0.013523,0.002678,0.000431,0.218250
4473000,0.0324,0.013523,0.002678,0.000431,0.230473
4474000,0.0324,0.013523,0.002678,0.000431,0.218837
4475000,0.0324,0.013523,0.002678,0.000431,0.217075
4476000,0.0324,0.013523,0.002678,0.000431,0.216722
4477000,0.0324,0.013523,0.002678,0.000431,0.218250
4478000,0.0324,0.013523,0.002678,0.000431,0.215899
4479000,0.0324,0.013523,0.002678,0.000431,0.214959
4480000,0.0324,0.013523,0.002678,0.000431,0.212726
4481000,0.0324,0.013523,0.002678,0.000431,0.210023
4482000,0.0324,0.013523,0.002678,0.000431,0.218367
4483000,0.0324,0.013523,0.002678,0.000431,0.216604
4484000,0.0324,0.013523,0.002678,0.000431,0.208142
4485000,0.0324,0.013523,0.002678,0.000431,0.214959
4486000,0.0324,0.013523,0.002678,0.000431,0.219543
4487000,0.0324,0.013523,0.002678,0.000431,0.258444
4488000,0.0324,0.013523,0.002678,0.000431,0.298287
4489000,0.0324,0.013523,0.002678,0.000431,0.264086
4490000,0.0324,0.013523,0.002678,0.000431,0.277837
4491000,0.0324,0.013523,0.002678,0.000431,0.273958
4492000,0.0324,0.013523,0.002678,0.000431,0.340362
4493000,0.0324,0.013523,0.002678,0.000431,0.340009
4494000,0.0324,0.013523,0.002678,0.000431,0.385257
4495000,0.0324,0.013523,0.002678,0.000431,0.365630
4496000,0.0324,0.013523,0.002678,0.000431,0.367981
4497000,0.0324,0.013523,0.002678,0.000431,0.400654
4498000,0.0324,0.013523,0.002678,0.000431,0.406412
4499000,0.0324,0.013523,0.002678,0.000431,0.443669
4500000,0.0324,0.013523,0.002678,0.000431,0.426157
4501000,0.0324,0.013523,0.002678,0.000431,0.453071
4502000,0.0324,0.013523,0.002678,0.000431,0.434737
4503000,0.0324,0.013523,0.002678,0.000431,0.463884
4504000,0.0324,0.013523,0.002678,0.000431,0.428390
4505000,0.0324,0.013523,0.002678,0.000431,0.460946
4506000,0.0324,0.013523,0.002678,0.000431,0.439555
4507000,0.0324,0.013523,0.002678,0.000431,0.483864
4508000,0.0324,0.013523,0.002678,0.000431,0.457302
4509000,0.0324,0.013523,0.002678,0.000431,0.470700
4510000,0.0324,0.013523,0.002678,0.000431,0.442846
4511000,0.0324,0.013523,0.002678,0.000431,0.484921
4512000,0.0324,0.013523,0.002678,0.000431,0.456597
4513000,0.0324,0.013523,0.002678,0.000431,0.458830
4514000,0.0324,0.013523,0.002678,0.000431,0.456127
4515000,0.0324,0.013523,0.002678,0.000431,0.473521
4516000,0.0324,0.013523,0.002678,0.000431,0.454481
4517000,0.0324,0.013523,0.002678,0.000431,0.474226
4518000,0.0324,0.013523,0.002678,0.000431,0.467410
4519000,0.0324,0.013523,0.002678,0.000431,0.471993
4520000,0.0324,0.013523,0.002678,0.000431,0.454481
4521000,0.0324,0.013523,0.002678,0.000431,0.465529
4522000,0.0324,0.013523,0.002678,0.000431,0.468232
4523000,0.0324,0.013523,0.002678,0.000431,0.473521
4524000,0.0324,0.013523,0.002678,0.000431,0.489152
4525000,0.0324,0.013523,0.002678,0.000431,0.499025
4526000,0.0324,0.013523,0.002678,0.000431,0.475049
4527000,0.0324,0.013523,0.002678,0.000431,0.486097
4528000,0.0324,0.013523,0.002678,0.000431,0.459653
4529000,0.0324,0.013523,0.002678,0.000431,0.511130
4530000,0.0324,0.013523,0.002678,0.000431,0.496792
4531000,0.0324,0.013523,0.002678,0.000431,0.521002
4532000,0.0324,0.013523,0.002678,0.000431,0.497027
4533000,0.0324,0.013523,0.002678,0.000431,0.529935
4534000,0.0324,0.013523,0.002678,0.000431,0.501610
4535000,0.0324,0.013523,0.002678,0.000431,0.521473
4536000,0.0324,0.013523,0.002678,0.000431,0.518299
4537000,0.0324,0.013523,0.002678,0.000431,0.508544
4538000,0.0324,0.013523,0.002678,0.000431,0.507369
4539000,0.0324,0.013523,0.002678,0.000431,0.514773
4540000,0.0324,0.013523,0.002678,0.000431,0.516184
4541000,0.0324,0.013523,0.002678,0.000431,0.531580
4542000,0.0324,0.013523,0.002678,0.000431,0.544391
4543000,0.0324,0.013523,0.002678,0.000431,0.535811
4544000,0.0324,0.013523,0.002678,0.000431,0.556261
4545000,0.0324,0.013523,0.002678,0.000431,0.545096
4546000,0.0324,0.013523,0.002678,0.000431,0.548504
4547000,0.0324,0.013523,0.002678,0.000431,0.551795
4548000,0.0324,0.013523,0.002678,0.000431,0.545331
4549000,0.0324,0.013523,0.002678,0.000431,0.554615
4550000,0.0324,0.013523,0.002678,0.000431,0.554615
4551000,0.0324,0.013523,0.002678,0.000431,0.566838
4552000,0.0324,0.013523,0.002678,0.000431,0.560609
4553000,0.0324,0.013523,0.002678,0.000431,0.566838
4554000,0.0324,0.013523,0.002678,0.000431,0.556731
4555000,0.0324,0.013523,0.002678,0.000431,0.565781
4556000,0.0324,0.013523,0.002678,0.000431,0.572010
4557000,0.0324,0.013523,0.002678,0.000431,0.560844
4558000,0.0324,0.013523,0.002678,0.000431,0.581647
4559000,0.0324,0.013523,0.002678,0.000431,0.567661
4560000,0.0324,0.013523,0.002678,0.000431,0.550149
4561000,0.0324,0.013523,0.002678,0.000431,0.551090
4562000,0.0324,0.013523,0.002678,0.000431,0.551442
4563000,0.0324,0.013523,0.002678,0.000431,0.531110
4564000,0.0324,0.013523,0.002678,0.000431,0.537221
4565000,0.0324,0.013523,0.002678,0.000431,0.555908
4566000,0.0324,0.013523,0.002678,0.000431,0.552382
4567000,0.0324,0.013523,0.002678,0.000431,0.538984
4568000,0.0324,0.013523,0.002678,0.000431,0.560374
4569000,0.0324,0.013523,0.002678,0.000431,0.541805
4570000,0.0324,0.013523,0.002678,0.000431,0.528407
4571000,0.0324,0.013523,0.002678,0.000431,0.551207
4572000,0.0324,0.013523,0.002678,0.000431,0.582470
4573000,0.0324,0.013523,0.002678,0.000431,0.540160
4574000,0.0324,0.013523,0.002678,0.000431,0.556613
4575000,0.0324,0.013523,0.002678,0.000431,0.560727
4576000,0.0324,0.013523,0.002678,0.000431,0.548974
4577000,0.0324,0.013523,0.002678,0.000431,0.547094
4578000,0.0324,0.013523,0.002678,0.000431,0.534636
4579000,0.0324,0.013523,0.002678,0.000431,0.533695
4580000,0.0324,0.013523,0.002678,0.000431,0.543568
4581000,0.0324,0.013523,0.002678,0.000431,0.528759
4582000,0.0324,0.013523,0.002678,0.000431,0.532755
4583000,0.0324,0.013523,0.002678,0.000431,0.534636
4584000,0.0324,0.013523,0.002678,0.000431,0.529229
4585000,0.0324,0.013523,0.002678,0.000431,0.541100
4586000,0.0324,0.013523,0.002678,0.000431,0.518769
4587000,0.0324,0.013523,0.002678,0.000431,0.514068
4588000,0.0324,0.013523,0.002678,0.000431,0.514421
4589000,0.0324,0.013523,0.002678,0.000431,0.521237
4590000,0.0324,0.013523,0.002678,0.000431,0.511248
4591000,0.0324,0.013523,0.002678,0.000431,0.534518
4592000,0.0324,0.013523,0.002678,0.000431,0.523941
4593000,0.0324,0.013523,0.002678,0.000431,0.525586
4594000,0.0324,0.013523,0.002678,0.000431,0.527114
4595000,0.0324,0.013523,0.002678,0.000431,0.513246
4596000,0.0324,0.013523,0.002678,0.000431,0.498790
4597000,0.0324,0.013523,0.002678,0.000431,0.502668
4598000,0.0324,0.013523,0.002678,0.000431,0.479162
4599000,0.0324,0.013523,0.002678,0.000431,0.489975
4600000,0.0324,0.013523,0.002678,0.000431,0.479045
4601000,0.0324,0.013523,0.002678,0.000431,0.481748
4602000,0.0324,0.013523,0.002678,0.000431,0.469878
4603000,0.0324,0.013523,0.002678,0.000431,0.483981
4604000,0.0324,0.013523,0.002678,0.000431,0.513246
4605000,0.0324,0.013523,0.002678,0.000431,0.474696
4606000,0.0324,0.013523,0.002678,0.000431,0.475754
4607000,0.0324,0.013523,0.002678,0.000431,0.479985
4608000,0.0324,0.013523,0.002678,0.000431,0.489152
4609000,0.0324,0.013523,0.002678,0.000431,0.460828
4610000,0.0324,0.013523,0.002678,0.000431,0.463296
4611000,0.0324,0.013523,0.002678,0.000431,0.449193
4612000,0.0324,0.013523,0.002678,0.000431,0.449663
4613000,0.0324,0.013523,0.002678,0.000431,0.439438
4614000,0.0324,0.013523,0.002678,0.000431,0.440613
4615000,0.0324,0.013523,0.002678,0.000431,0.439438
4616000,0.0324,0.013523,0.002678,0.000431,0.440378
4617000,0.0324,0.013523,0.002678,0.000431,0.420633
4618000,0.0324,0.013523,0.002678,0.000431,0.440143
4619000,0.0324,0.013523,0.002678,0.000431,0.423337
4620000,0.0324,0.013523,0.002678,0.000431,0.417108
4621000,0.0324,0.013523,0.002678,0.000431,0.419811
4622000,0.0324,0.013523,0.002678,0.000431,0.405707
4623000,0.0324,0.013523,0.002678,0.000431,0.417108
4624000,0.0324,0.013523,0.002678,0.000431,0.422984
4625000,0.0324,0.013523,0.002678,0.000431,0.428860
4626000,0.0324,0.013523,0.002678,0.000431,0.405002
4627000,0.0324,0.013523,0.002678,0.000431,0.409233
4628000,0.0324,0.013523,0.002678,0.000431,0.407940
4629000,0.0324,0.013523,0.002678,0.000431,0.411114
4630000,0.0324,0.013523,0.002678,0.000431,0.396188
4631000,0.0324,0.013523,0.002678,0.000431,0.403592
4632000,0.0324,0.013523,0.002678,0.000431,0.391486
4633000,0.0324,0.013523,0.002678,0.000431,0.390664
4634000,0.0324,0.013523,0.002678,0.000431,0.385022
4635000,0.0324,0.013523,0.002678,0.000431,0.396305
4636000,0.0324,0.013523,0.002678,0.000431,0.399948
4637000,0.0324,0.013523,0.002678,0.000431,0.394072
4638000,0.0324,0.013523,0.002678,0.000431,0.387138
4639000,0.0324,0.013523,0.002678,0.000431,0.383730
4640000,0.0324,0.013523,0.002678,0.000431,0.398656
4641000,0.0324,0.013523,0.002678,0.000431,0.395717
4642000,0.0324,0.013523,0.002678,0.000431,0.383142
4643000,0.0324,0.013523,0.002678,0.000431,0.389371
4644000,0.0324,0.013523,0.002678,0.000431,0.382907
4645000,0.0324,0.013523,0.002678,0.000431,0.381496
4646000,0.0324,0.013523,0.002678,0.000431,0.383142
4647000,0.0324,0.013523,0.002678,0.000431,0.370449
4648000,0.0324,0.013523,0.002678,0.000431,0.370684
4649000,0.0324,0.013523,0.002678,0.000431,0.379263
4650000,0.0324,0.013523,0.002678,0.000431,0.373152
4651000,0.0324,0.013523,0.002678,0.000431,0.386198
4652000,0.0324,0.013523,0.002678,0.000431,0.373034
4653000,0.0324,0.013523,0.002678,0.000431,0.383494
4654000,0.0324,0.013523,0.002678,0.000431,0.382554
4655000,0.0324,0.013523,0.002678,0.000431,0.376208
4656000,0.0324,0.013523,0.002678,0.000431,0.362339
4657000,0.0324,0.013523,0.002678,0.000431,0.373270
4658000,0.0324,0.013523,0.002678,0.000431,0.377383
4659000,0.0324,0.013523,0.002678,0.000431,0.366100
4660000,0.0324,0.013523,0.002678,0.000431,0.365513
4661000,0.0324,0.013523,0.002678,0.000431,0.364102
4662000,0.0324,0.013523,0.002678,0.000431,0.354935
4663000,0.0324,0.013523,0.002678,0.000431,0.357521
4664000,0.0324,0.013523,0.002678,0.000431,0.361634
4665000,0.0324,0.013523,0.002678,0.000431,0.346826
4666000,0.0324,0.013523,0.002678,0.000431,0.354818
4667000,0.0324,0.013523,0.002678,0.000431,0.359166
4668000,0.0324,0.013523,0.002678,0.000431,0.350352
4669000,0.0324,0.013523,0.002678,0.000431,0.355758
4670000,0.0324,0.013523,0.002678,0.000431,0.338364
4671000,0.0324,0.013523,0.002678,0.000431,0.335073
4672000,0.0324,0.013523,0.002678,0.000431,0.340127
4673000,0.0324,0.013523,0.002678,0.000431,0.342595
4674000,0.0324,0.013523,0.002678,0.000431,0.330137
4675000,0.0324,0.013523,0.002678,0.000431,0.344475
4676000,0.0324,0.013523,0.002678,0.000431,0.340597
4677000,0.0324,0.013523,0.002678,0.000431,0.330254
4678000,0.0324,0.013523,0.002678,0.000431,0.325788
4679000,0.0324,0.013523,0.002678,0.000431,0.333545
4680000,0.0324,0.013523,0.002678,0.000431,0.352702
4681000,0.0324,0.013523,0.002678,0.000431,0.326611
4682000,0.0324,0.013523,0.002678,0.000431,0.336953
4683000,0.0324,0.013523,0.002678,0.000431,0.334603
4684000,0.0324,0.013523,0.002678,0.000431,0.332135
4685000,0.0324,0.013523,0.002678,0.000431,0.337188
4686000,0.0324,0.013523,0.002678,0.000431,0.333780
4687000,0.0324,0.013523,0.002678,0.000431,0.354583
4688000,0.0324,0.013523,0.002678,0.000431,0.340244
4689000,0.0324,0.013523,0.002678,0.000431,0.333545
4690000,0.0324,0.013523,0.002678,0.000431,0.324730
4691000,0.0324,0.013523,0.002678,0.000431,0.329079
4692000,0.0324,0.013523,0.002678,0.000431,0.331429
4693000,0.0324,0.013523,0.002678,0.000431,0.317091
4694000,0.0324,0.013523,0.002678,0.000431,0.301812
4695000,0.0324,0.013523,0.002678,0.000431,0.306984
4696000,0.0324,0.013523,0.002678,0.000431,0.303693
4697000,0.0324,0.013523,0.002678,0.000431,0.306866
4698000,0.0324,0.013523,0.002678,0.000431,0.308864
4699000,0.0324,0.013523,0.002678,0.000431,0.300167
4700000,0.0324,0.013523,0.002678,0.000431,0.301577
4701000,0.0324,0.013523,0.002678,0.000431,0.310745
4702000,0.0324,0.013523,0.002678,0.000431,0.303458
4703000,0.0324,0.013523,0.002678,0.000431,0.287709
4704000,0.0324,0.013523,0.002678,0.000431,0.300285
4705000,0.0324,0.013523,0.002678,0.000431,0.309099
4706000,0.0324,0.013523,0.002678,0.000431,0.306984
4707000,0.0324,0.013523,0.002678,0.000431,0.306043
4708000,0.0324,0.013523,0.002678,0.000431,0.316386
4709000,0.0324,0.013523,0.002678,0.000431,0.309099
4710000,0.0324,0.013523,0.002678,0.000431,0.317326
4711000,0.0324,0.013523,0.002678,0.000431,0.331429
4712000,0.0324,0.013523,0.002678,0.000431,0.330842
4713000,0.0324,0.013523,0.002678,0.000431,0.313565
4714000,0.0324,0.013523,0.002678,0.000431,0.324260
4715000,0.0324,0.013523,0.002678,0.000431,0.311802
4716000,0.0324,0.013523,0.002678,0.000431,0.316738
4717000,0.0324,0.013523,0.002678,0.000431,0.312507
4718000,0.0324,0.013523,0.002678,0.000431,0.318854
4719000,0.0324,0.013523,0.002678,0.000431,0.310039
4720000,0.0324,0.013523,0.002678,0.000431,0.299697
4721000,0.0324,0.013523,0.002678,0.000431,0.302400
4722000,0.0324,0.013523,0.002678,0.000431,0.301460
4723000,0.0324,0.013523,0.002678,0.000431,0.311215
4724000,0.0324,0.013523,0.002678,0.000431,0.301225
4725000,0.0324,0.013523,0.002678,0.000431,0.299579
4726000,0.0324,0.013523,0.002678,0.000431,0.292528
4727000,0.0324,0.013523,0.002678,0.000431,0.303693
4728000,0.0324,0.013523,0.002678,0.000431,0.310627
4729000,0.0324,0.013523,0.002678,0.000431,0.315798
4730000,0.0324,0.013523,0.002678,0.000431,0.297346
4731000,0.0324,0.013523,0.002678,0.000431,0.309334
4732000,0.0324,0.013523,0.002678,0.000431,0.304986
4733000,0.0324,0.013523,0.002678,0.000431,0.306866
4734000,0.0324,0.013523,0.002678,0.000431,0.305456
4735000,0.0324,0.013523,0.002678,0.000431,0.289942
4736000,0.0324,0.013523,0.002678,0.000431,0.289119
4737000,0.0324,0.013523,0.002678,0.000431,0.293350
4738000,0.0324,0.013523,0.002678,0.000431,0.292763
4739000,0.0324,0.013523,0.002678,0.000431,0.291940
4740000,0.0324,0.013523,0.002678,0.000431,0.290060
4741000,0.0324,0.013523,0.002678,0.000431,0.289002
4742000,0.0324,0.013523,0.002678,0.000431,0.299814
4743000,0.0324,0.013523,0.002678,0.000431,0.316033
4744000,0.0324,0.013523,0.002678,0.000431,0.307336
4745000,0.0324,0.013523,0.002678,0.000431,0.302282
4746000,0.0324,0.013523,0.002678,0.000431,0.309569
4747000,0.0324,0.013523,0.002678,0.000431,0.310627
4748000,0.0324,0.013523,0.002678,0.000431,0.310980
4749000,0.0324,0.013523,0.002678,0.000431,0.314035
4750000,0.0324,0.013523,0.002678,0.000431,0.307689
4751000,0.0324,0.013523,0.002678,0.000431,0.299344
4752000,0.0324,0.013523,0.002678,0.000431,0.302047
4753000,0.0324,0.013523,0.002678,0.000431,0.296406
4754000,0.0324,0.013523,0.002678,0.000431,0.299109
4755000,0.0324,0.013523,0.002678,0.000431,0.298404
4756000,0.0324,0.013523,0.002678,0.000431,0.305926
4757000,0.0324,0.013523,0.002678,0.000431,0.306749
4758000,0.0324,0.013523,0.002678,0.000431,0.299814
4759000,0.0324,0.013523,0.002678,0.000431,0.310039
4760000,0.0324,0.013523,0.002678,0.000431,0.297111
4761000,0.0324,0.013523,0.002678,0.000431,0.299462
4762000,0.0324,0.013523,0.002678,0.000431,0.298051
4763000,0.0324,0.013523,0.002678,0.000431,0.310627
4764000,0.0324,0.013523,0.002678,0.000431,0.303340
4765000,0.0324,0.013523,0.002678,0.000431,0.306631
4766000,0.0324,0.013523,0.002678,0.000431,0.304280
4767000,0.0324,0.013523,0.002678,0.000431,0.308159
4768000,0.0324,0.013523,0.002678,0.000431,0.299814
4769000,0.0324,0.013523,0.002678,0.000431,0.308864
4770000,0.0324,0.013523,0.002678,0.000431,0.293115
4771000,0.0324,0.013523,0.002678,0.000431,0.286416
4772000,0.0324,0.013523,0.002678,0.000431,0.286886
4773000,0.0324,0.013523,0.002678,0.000431,0.290295
4774000,0.0324,0.013523,0.002678,0.000431,0.283948
4775000,0.0324,0.013523,0.002678,0.000431,0.287944
4776000,0.0324,0.013523,0.002678,0.000431,0.293468
4777000,0.0324,0.013523,0.002678,0.000431,0.285241
4778000,0.0324,0.013523,0.002678,0.000431,0.284301
4779000,0.0324,0.013523,0.002678,0.000431,0.273958
4780000,0.0324,0.013523,0.002678,0.000431,0.281598
4781000,0.0324,0.013523,0.002678,0.000431,0.275486
4782000,0.0324,0.013523,0.002678,0.000431,0.273723
4783000,0.0324,0.013523,0.002678,0.000431,0.276074
4784000,0.0324,0.013523,0.002678,0.000431,0.281127
4785000,0.0324,0.013523,0.002678,0.000431,0.277367
4786000,0.0324,0.013523,0.002678,0.000431,0.297346
4787000,0.0324,0.013523,0.002678,0.000431,0.291587
4788000,0.0324,0.013523,0.002678,0.000431,0.285006
4789000,0.0324,0.013523,0.002678,0.000431,0.286534
4790000,0.0324,0.013523,0.002678,0.000431,0.288884
4791000,0.0324,0.013523,0.002678,0.000431,0.292410
4792000,0.0324,0.013523,0.002678,0.000431,0.286886
4793000,0.0324,0.013523,0.002678,0.000431,0.287356
4794000,0.0324,0.013523,0.002678,0.000431,0.289472
4795000,0.0324,0.013523,0.002678,0.000431,0.286769
4796000,0.0324,0.013523,0.002678,0.000431,0.292410
4797000,0.0324,0.013523,0.002678,0.000431,0.309217
4798000,0.0324,0.013523,0.002678,0.000431,0.294291
4799000,0.0324,0.013523,0.002678,0.000431,0.314270
4800000,0.0324,0.013523,0.002678,0.000431,0.306984
4801000,0.0324,0.013523,0.002678,0.000431,0.296406
4802000,0.0324,0.013523,0.002678,0.000431,0.316033
4803000,0.0324,0.013523,0.002678,0.000431,0.316386
4804000,0.0324,0.013523,0.002678,0.000431,0.315211
4805000,0.0324,0.013523,0.002678,0.000431,0.325671
4806000,0.0324,0.013523,0.002678,0.000431,0.334720
4807000,0.0324,0.013523,0.002678,0.000431,0.321205
4808000,0.0324,0.013523,0.002678,0.000431,0.313213
4809000,0.0324,0.013523,0.002678,0.000431,0.318384
4810000,0.0324,0.013523,0.002678,0.000431,0.319207
4811000,0.0324,0.013523,0.002678,0.000431,0.320029
4812000,0.0324,0.013523,0.002678,0.000431,0.326493
4813000,0.0324,0.013523,0.002678,0.000431,0.330254
4814000,0.0324,0.013523,0.002678,0.000431,0.332840
4815000,0.0324,0.013523,0.002678,0.000431,0.328491
4816000,0.0324,0.013523,0.002678,0.000431,0.321557
4817000,0.0324,0.013523,0.002678,0.000431,0.320382
4818000,0.0324,0.013523,0.002678,0.000431,0.312155
4819000,0.0324,0.013523,0.002678,0.000431,0.317444
4820000,0.0324,0.013523,0.002678,0.000431,0.309569
4821000,0.0324,0.013523,0.002678,0.000431,0.308041
4822000,0.0324,0.013523,0.002678,0.000431,0.313800
4823000,0.0324,0.013523,0.002678,0.000431,0.316033
4824000,0.0324,0.013523,0.002678,0.000431,0.292528
4825000,0.0324,0.013523,0.002678,0.000431,0.294173
4826000,0.0324,0.013523,0.002678,0.000431,0.289237
4827000,0.0324,0.013523,0.002678,0.000431,0.290765
4828000,0.0324,0.013523,0.002678,0.000431,0.275956
4829000,0.0324,0.013523,0.002678,0.000431,0.287474
4830000,0.0324,0.013523,0.002678,0.000431,0.290295
4831000,0.0324,0.013523,0.002678,0.000431,0.292293
4832000,0.0324,0.013523,0.002678,0.000431,0.281598
4833000,0.0324,0.013523,0.002678,0.000431,0.281833
4834000,0.0324,0.013523,0.002678,0.000431,0.286769
4835000,0.0324,0.013523,0.002678,0.000431,0.277602
4836000,0.0324,0.013523,0.002678,0.000431,0.284536
4837000,0.0324,0.013523,0.002678,0.000431,0.284418
4838000,0.0324,0.013523,0.002678,0.000431,0.287004
4839000,0.0324,0.013523,0.002678,0.000431,0.279482
4840000,0.0324,0.013523,0.002678,0.000431,0.280070
4841000,0.0324,0.013523,0.002678,0.000431,0.285241
4842000,0.0324,0.013523,0.002678,0.000431,0.284418
4843000,0.0324,0.013523,0.002678,0.000431,0.274781
4844000,0.0324,0.013523,0.002678,0.000431,0.284653
4845000,0.0324,0.013523,0.002678,0.000431,0.283243
4846000,0.0324,0.013523,0.002678,0.000431,0.278189
4847000,0.0324,0.013523,0.002678,0.000431,0.288179
4848000,0.0324,0.013523,0.002678,0.000431,0.279482
4849000,0.0324,0.013523,0.002678,0.000431,0.286886
4850000,0.0324,0.013523,0.002678,0.000431,0.287356
4851000,0.0324,0.013523,0.002678,0.000431,0.286534
4852000,0.0324,0.013523,0.002678,0.000431,0.283243
4853000,0.0324,0.013523,0.002678,0.000431,0.272195
4854000,0.0324,0.013523,0.002678,0.000431,0.279364
4855000,0.0324,0.013523,0.002678,0.000431,0.275956
4856000,0.0324,0.013523,0.002678,0.000431,0.273488
4857000,0.0324,0.013523,0.002678,0.000431,0.276779
4858000,0.0324,0.013523,0.002678,0.000431,0.271255
4859000,0.0324,0.013523,0.002678,0.000431,0.273606
4860000,0.0324,0.013523,0.002678,0.000431,0.253743
4861000,0.0324,0.013523,0.002678,0.000431,0.250923
4862000,0.0324,0.013523,0.002678,0.000431,0.252686
4863000,0.0324,0.013523,0.002678,0.000431,0.252568
4864000,0.0324,0.013523,0.002678,0.000431,0.240815
4865000,0.0324,0.013523,0.002678,0.000431,0.237407
4866000,0.0324,0.013523,0.002678,0.000431,0.259620
4867000,0.0324,0.013523,0.002678,0.000431,0.255036
4868000,0.0324,0.013523,0.002678,0.000431,0.248925
4869000,0.0324,0.013523,0.002678,0.000431,0.256799
4870000,0.0324,0.013523,0.002678,0.000431,0.264791
4871000,0.0324,0.013523,0.002678,0.000431,0.253743
4872000,0.0324,0.013523,0.002678,0.000431,0.247397
4873000,0.0324,0.013523,0.002678,0.000431,0.253273
4874000,0.0324,0.013523,0.002678,0.000431,0.272430
4875000,0.0324,0.013523,0.002678,0.000431,0.309804
4876000,0.0324,0.013523,0.002678,0.000431,0.292528
4877000,0.0324,0.013523,0.002678,0.000431,0.287004
4878000,0.0324,0.013523,0.002678,0.000431,0.282185
4879000,0.0324,0.013523,0.002678,0.000431,0.297111
4880000,0.0324,0.013523,0.002678,0.000431,0.296994
4881000,0.0324,0.013523,0.002678,0.000431,0.304398
4882000,0.0324,0.013523,0.002678,0.000431,0.295936
4883000,0.0324,0.013523,0.002678,0.000431,0.318149
4884000,0.0324,0.013523,0.002678,0.000431,0.323438
4885000,0.0324,0.013523,0.002678,0.000431,0.310862
4886000,0.0324,0.013523,0.002678,0.000431,0.315563
4887000,0.0324,0.013523,0.002678,0.000431,0.300167
4888000,0.0324,0.013523,0.002678,0.000431,0.302282
4889000,0.0324,0.013523,0.002678,0.000431,0.310980
4890000,0.0324,0.013523,0.002678,0.000431,0.302635
4891000,0.0324,0.013523,0.002678,0.000431,0.320264
4892000,0.0324,0.013523,0.002678,0.000431,0.321675
4893000,0.0324,0.013523,0.002678,0.000431,0.331312
4894000,0.0324,0.013523,0.002678,0.000431,0.331194
4895000,0.0324,0.013523,0.002678,0.000431,0.329314
4896000,0.0324,0.013523,0.002678,0.000431,0.325671
4897000,0.0324,0.013523,0.002678,0.000431,0.327434
4898000,0.0324,0.013523,0.002678,0.000431,0.346708
4899000,0.0324,0.013523,0.002678,0.000431,0.330489
4900000,0.0324,0.013523,0.002678,0.000431,0.356581
4901000,0.0324,0.013523,0.002678,0.000431,0.344358
4902000,0.0324,0.013523,0.002678,0.000431,0.345650
4903000,0.0324,0.013523,0.002678,0.000431,0.338599
4904000,0.0324,0.013523,0.002678,0.000431,0.341772
4905000,0.0324,0.013523,0.002678,0.000431,0.342947
4906000,0.0324,0.013523,0.002678,0.000431,0.337188
4907000,0.0324,0.013523,0.002678,0.000431,0.330842
4908000,0.0324,0.013523,0.002678,0.000431,0.345298
4909000,0.0324,0.013523,0.002678,0.000431,0.336013
4910000,0.0324,0.013523,0.002678,0.000431,0.345415
4911000,0.0324,0.013523,0.002678,0.000431,0.340597
4912000,0.0324,0.013523,0.002678,0.000431,0.335190
4913000,0.0324,0.013523,0.002678,0.000431,0.337894
4914000,0.0324,0.013523,0.002678,0.000431,0.334015
4915000,0.0324,0.013523,0.002678,0.000431,0.337776
4916000,0.0324,0.013523,0.002678,0.000431,0.333898
4917000,0.0324,0.013523,0.002678,0.000431,0.323438
4918000,0.0324,0.013523,0.002678,0.000431,0.327551
4919000,0.0324,0.013523,0.002678,0.000431,0.325906
4920000,0.0324,0.013523,0.002678,0.000431,0.320734
4921000,0.0324,0.013523,0.002678,0.000431,0.317209
4922000,0.0324,0.013523,0.002678,0.000431,0.314976
4923000,0.0324,0.013523,0.002678,0.000431,0.326493
4924000,0.0324,0.013523,0.002678,0.000431,0.323555
4925000,0.0324,0.013523,0.002678,0.000431,0.320617
4926000,0.0324,0.013523,0.002678,0.000431,0.322262
4927000,0.0324,0.013523,0.002678,0.000431,0.320382
4928000,0.0324,0.013523,0.002678,0.000431,0.316621
4929000,0.0324,0.013523,0.002678,0.000431,0.314153
4930000,0.0324,0.013523,0.002678,0.000431,0.306866
4931000,0.0324,0.013523,0.002678,0.000431,0.305808
4932000,0.0324,0.013523,0.002678,0.000431,0.301930
4933000,0.0324,0.013523,0.002678,0.000431,0.297816
4934000,0.0324,0.013523,0.002678,0.000431,0.294643
4935000,0.0324,0.013523,0.002678,0.000431,0.290177
4936000,0.0324,0.013523,0.002678,0.000431,0.288884
4937000,0.0324,0.013523,0.002678,0.000431,0.284066
4938000,0.0324,0.013523,0.002678,0.000431,0.275839
4939000,0.0324,0.013523,0.002678,0.000431,0.267847
4940000,0.0324,0.013523,0.002678,0.000431,0.270550
4941000,0.0324,0.013523,0.002678,0.000431,0.261735
4942000,0.0324,0.013523,0.002678,0.000431,0.259150
4943000,0.0324,0.013523,0.002678,0.000431,0.261735
4944000,0.0324,0.013523,0.002678,0.000431,0.266084
4945000,0.0324,0.013523,0.002678,0.000431,0.258680
4946000,0.0324,0.013523,0.002678,0.000431,0.250335
4947000,0.0324,0.013523,0.002678,0.000431,0.244576
4948000,0.0324,0.013523,0.002678,0.000431,0.246927
4949000,0.0324,0.013523,0.002678,0.000431,0.248807
4950000,0.0324,0.013523,0.002678,0.000431,0.249512
4951000,0.0324,0.013523,0.002678,0.000431,0.247867
4952000,0.0324,0.013523,0.002678,0.000431,0.241050
4953000,0.0324,0.013523,0.002678,0.000431,0.243871
4954000,0.0324,0.013523,0.002678,0.000431,0.249160
4955000,0.0324,0.013523,0.002678,0.000431,0.245516
4956000,0.0324,0.013523,0.002678,0.000431,0.239052
4957000,0.0324,0.013523,0.002678,0.000431,0.236584
4958000,0.0324,0.013523,0.002678,0.000431,0.245399
4959000,0.0324,0.013523,0.002678,0.000431,0.232236
4960000,0.0324,0.013523,0.002678,0.000431,0.241403
4961000,0.0324,0.013523,0.002678,0.000431,0.232588
4962000,0.0324,0.013523,0.002678,0.000431,0.229885
4963000,0.0324,0.013523,0.002678,0.000431,0.229650
4964000,0.0324,0.013523,0.002678,0.000431,0.236232
4965000,0.0324,0.013523,0.002678,0.000431,0.231178
4966000,0.0324,0.013523,0.002678,0.000431,0.226007
4967000,0.0324,0.013523,0.002678,0.000431,0.231531
4968000,0.0324,0.013523,0.002678,0.000431,0.233999
4969000,0.0324,0.013523,0.002678,0.000431,0.223304
4970000,0.0324,0.013523,0.002678,0.000431,0.230943
4971000,0.0324,0.013523,0.002678,0.000431,0.224009
4972000,0.0324,0.013523,0.002678,0.000431,0.212491
4973000,0.0324,0.013523,0.002678,0.000431,0.220130
4974000,0.0324,0.013523,0.002678,0.000431,0.212608
4975000,0.0324,0.013523,0.002678,0.000431,0.201091
4976000,0.0324,0.013523,0.002678,0.000431,0.205439
4977000,0.0324,0.013523,0.002678,0.000431,0.211903
4978000,0.0324,0.013523,0.002678,0.000431,0.199210
4979000,0.0324,0.013523,0.002678,0.000431,0.209905
4980000,0.0324,0.013523,0.002678,0.000431,0.213666
4981000,0.0324,0.013523,0.002678,0.000431,0.209905
4982000,0.0324,0.013523,0.002678,0.000431,0.209435
4983000,0.0324,0.013523,0.002678,0.000431,0.205322
4984000,0.0324,0.013523,0.002678,0.000431,0.210846
4985000,0.0324,0.013523,0.002678,0.000431,0.220835
4986000,0.0324,0.013523,0.002678,0.000431,0.219190
4987000,0.0324,0.013523,0.002678,0.000431,0.198975
4988000,0.0324,0.013523,0.002678,0.000431,0.210023
4989000,0.0324,0.013523,0.002678,0.000431,0.220248
4990000,0.0324,0.013523,0.002678,0.000431,0.214136
4991000,0.0324,0.013523,0.002678,0.000431,0.198270
4992000,0.0324,0.013523,0.002678,0.000431,0.192864
4993000,0.0324,0.013523,0.002678,0.000431,0.204499
4994000,0.0324,0.013523,0.002678,0.000431,0.195214
4995000,0.0324,0.013523,0.002678,0.000431,0.188750
4996000,0.0324,0.013523,0.002678,0.000431,0.186282
4997000,0.0324,0.013523,0.002678,0.000431,0.184754
4998000,0.0324,0.013523,0.002678,0.000431,0.181699
4999000,0.0324,0.013523,0.002678,0.000431,0.191688
